  15  15   0   0
  0.2033749E+02  0.4846000E-09  0.4846000E-09  0.1500000E-08  0.5000000E-15
  1.000000000000000E-004
  CAR 
 Dielectric                              
     27.37601344    -22.50831006 4000     -0.46600986      1.00000000
    -22.508  0.0000E+00  0.0000E+00
    -22.496  0.0000E+00  0.0000E+00
    -22.483  0.0000E+00  0.0000E+00
    -22.471  0.0000E+00  0.0000E+00
    -22.458  0.0000E+00  0.0000E+00
    -22.446  0.0000E+00  0.0000E+00
    -22.433  0.0000E+00  0.0000E+00
    -22.421  0.0000E+00  0.0000E+00
    -22.409  0.0000E+00  0.0000E+00
    -22.396  0.0000E+00  0.0000E+00
    -22.384  0.0000E+00  0.0000E+00
    -22.371  0.0000E+00  0.0000E+00
    -22.359  0.0000E+00  0.0000E+00
    -22.346  0.0000E+00  0.0000E+00
    -22.334  0.0000E+00  0.0000E+00
    -22.321  0.0000E+00  0.0000E+00
    -22.309  0.0000E+00  0.0000E+00
    -22.296  0.0000E+00  0.0000E+00
    -22.284  0.0000E+00  0.0000E+00
    -22.271  0.0000E+00  0.0000E+00
    -22.259  0.0000E+00  0.0000E+00
    -22.246  0.0000E+00  0.0000E+00
    -22.234  0.0000E+00  0.0000E+00
    -22.221  0.0000E+00  0.0000E+00
    -22.209  0.0000E+00  0.0000E+00
    -22.196  0.0000E+00  0.0000E+00
    -22.184  0.0000E+00  0.0000E+00
    -22.172  0.0000E+00  0.0000E+00
    -22.159  0.0000E+00  0.0000E+00
    -22.147  0.0000E+00  0.0000E+00
    -22.134  0.0000E+00  0.0000E+00
    -22.122  0.0000E+00  0.0000E+00
    -22.109  0.0000E+00  0.0000E+00
    -22.097  0.0000E+00  0.0000E+00
    -22.084  0.0000E+00  0.0000E+00
    -22.072  0.0000E+00  0.0000E+00
    -22.059  0.0000E+00  0.0000E+00
    -22.047  0.0000E+00  0.0000E+00
    -22.034  0.0000E+00  0.0000E+00
    -22.022  0.0000E+00  0.0000E+00
    -22.009  0.0000E+00  0.0000E+00
    -21.997  0.0000E+00  0.0000E+00
    -21.984  0.0000E+00  0.0000E+00
    -21.972  0.0000E+00  0.0000E+00
    -21.959  0.0000E+00  0.0000E+00
    -21.947  0.0000E+00  0.0000E+00
    -21.934  0.0000E+00  0.0000E+00
    -21.922  0.0000E+00  0.0000E+00
    -21.910  0.0000E+00  0.0000E+00
    -21.897  0.0000E+00  0.0000E+00
    -21.885  0.0000E+00  0.0000E+00
    -21.872  0.0000E+00  0.0000E+00
    -21.860  0.0000E+00  0.0000E+00
    -21.847  0.0000E+00  0.0000E+00
    -21.835  0.0000E+00  0.0000E+00
    -21.822  0.0000E+00  0.0000E+00
    -21.810  0.0000E+00  0.0000E+00
    -21.797  0.0000E+00  0.0000E+00
    -21.785  0.0000E+00  0.0000E+00
    -21.772  0.0000E+00  0.0000E+00
    -21.760  0.0000E+00  0.0000E+00
    -21.747  0.0000E+00  0.0000E+00
    -21.735  0.0000E+00  0.0000E+00
    -21.722  0.0000E+00  0.0000E+00
    -21.710  0.0000E+00  0.0000E+00
    -21.697  0.0000E+00  0.0000E+00
    -21.685  0.0000E+00  0.0000E+00
    -21.673  0.0000E+00  0.0000E+00
    -21.660  0.0000E+00  0.0000E+00
    -21.648  0.0000E+00  0.0000E+00
    -21.635  0.0000E+00  0.0000E+00
    -21.623  0.0000E+00  0.0000E+00
    -21.610  0.0000E+00  0.0000E+00
    -21.598  0.0000E+00  0.0000E+00
    -21.585  0.0000E+00  0.0000E+00
    -21.573  0.0000E+00  0.0000E+00
    -21.560  0.0000E+00  0.0000E+00
    -21.548  0.0000E+00  0.0000E+00
    -21.535  0.0000E+00  0.0000E+00
    -21.523  0.0000E+00  0.0000E+00
    -21.510  0.0000E+00  0.0000E+00
    -21.498  0.0000E+00  0.0000E+00
    -21.485  0.0000E+00  0.0000E+00
    -21.473  0.0000E+00  0.0000E+00
    -21.460  0.0000E+00  0.0000E+00
    -21.448  0.0000E+00  0.0000E+00
    -21.436  0.0000E+00  0.0000E+00
    -21.423  0.0000E+00  0.0000E+00
    -21.411  0.0000E+00  0.0000E+00
    -21.398  0.0000E+00  0.0000E+00
    -21.386  0.0000E+00  0.0000E+00
    -21.373  0.0000E+00  0.0000E+00
    -21.361  0.0000E+00  0.0000E+00
    -21.348  0.0000E+00  0.0000E+00
    -21.336  0.0000E+00  0.0000E+00
    -21.323  0.0000E+00  0.0000E+00
    -21.311  0.0000E+00  0.0000E+00
    -21.298  0.0000E+00  0.0000E+00
    -21.286  0.0000E+00  0.0000E+00
    -21.273  0.0000E+00  0.0000E+00
    -21.261  0.0000E+00  0.0000E+00
    -21.248  0.0000E+00  0.0000E+00
    -21.236  0.0000E+00  0.0000E+00
    -21.223  0.0000E+00  0.0000E+00
    -21.211  0.0000E+00  0.0000E+00
    -21.199  0.0000E+00  0.0000E+00
    -21.186  0.0000E+00  0.0000E+00
    -21.174  0.0000E+00  0.0000E+00
    -21.161  0.0000E+00  0.0000E+00
    -21.149  0.0000E+00  0.0000E+00
    -21.136  0.0000E+00  0.0000E+00
    -21.124  0.0000E+00  0.0000E+00
    -21.111  0.0000E+00  0.0000E+00
    -21.099  0.0000E+00  0.0000E+00
    -21.086  0.0000E+00  0.0000E+00
    -21.074  0.0000E+00  0.0000E+00
    -21.061  0.0000E+00  0.0000E+00
    -21.049  0.0000E+00  0.0000E+00
    -21.036  0.0000E+00  0.0000E+00
    -21.024  0.0000E+00  0.0000E+00
    -21.011  0.0000E+00  0.0000E+00
    -20.999  0.0000E+00  0.0000E+00
    -20.986  0.0000E+00  0.0000E+00
    -20.974  0.0000E+00  0.0000E+00
    -20.962  0.0000E+00  0.0000E+00
    -20.949  0.0000E+00  0.0000E+00
    -20.937  0.0000E+00  0.0000E+00
    -20.924  0.0000E+00  0.0000E+00
    -20.912  0.0000E+00  0.0000E+00
    -20.899  0.0000E+00  0.0000E+00
    -20.887  0.0000E+00  0.0000E+00
    -20.874  0.0000E+00  0.0000E+00
    -20.862  0.0000E+00  0.0000E+00
    -20.849  0.0000E+00  0.0000E+00
    -20.837  0.0000E+00  0.0000E+00
    -20.824  0.0000E+00  0.0000E+00
    -20.812  0.0000E+00  0.0000E+00
    -20.799  0.0000E+00  0.0000E+00
    -20.787  0.0000E+00  0.0000E+00
    -20.774  0.0000E+00  0.0000E+00
    -20.762  0.0000E+00  0.0000E+00
    -20.749  0.0000E+00  0.0000E+00
    -20.737  0.0000E+00  0.0000E+00
    -20.724  0.0000E+00  0.0000E+00
    -20.712  0.0000E+00  0.0000E+00
    -20.700  0.0000E+00  0.0000E+00
    -20.687  0.0000E+00  0.0000E+00
    -20.675  0.0000E+00  0.0000E+00
    -20.662  0.0000E+00  0.0000E+00
    -20.650  0.0000E+00  0.0000E+00
    -20.637  0.0000E+00  0.0000E+00
    -20.625  0.0000E+00  0.0000E+00
    -20.612  0.0000E+00  0.0000E+00
    -20.600  0.0000E+00  0.0000E+00
    -20.587  0.0000E+00  0.0000E+00
    -20.575  0.0000E+00  0.0000E+00
    -20.562  0.0000E+00  0.0000E+00
    -20.550  0.0000E+00  0.0000E+00
    -20.537  0.0000E+00  0.0000E+00
    -20.525  0.0000E+00  0.0000E+00
    -20.512  0.0000E+00  0.0000E+00
    -20.500  0.0000E+00  0.0000E+00
    -20.487  0.0000E+00  0.0000E+00
    -20.475  0.0000E+00  0.0000E+00
    -20.463  0.0000E+00  0.0000E+00
    -20.450  0.0000E+00  0.0000E+00
    -20.438  0.0000E+00  0.0000E+00
    -20.425  0.0000E+00  0.0000E+00
    -20.413  0.0000E+00  0.0000E+00
    -20.400  0.0000E+00  0.0000E+00
    -20.388  0.0000E+00  0.0000E+00
    -20.375  0.0000E+00  0.0000E+00
    -20.363  0.0000E+00  0.0000E+00
    -20.350  0.0000E+00  0.0000E+00
    -20.338  0.0000E+00  0.0000E+00
    -20.325  0.0000E+00  0.0000E+00
    -20.313  0.0000E+00  0.0000E+00
    -20.300  0.0000E+00  0.0000E+00
    -20.288  0.3621E-11  0.4517E-13
    -20.275  0.1287E-06  0.1605E-08
    -20.263  0.2312E-03  0.2886E-05
    -20.250  0.2663E-01  0.3351E-03
    -20.238  0.3938E+00  0.5248E-02
    -20.226  0.1077E+01  0.1868E-01
    -20.213  0.1019E+01  0.3138E-01
    -20.201  0.1603E+01  0.5139E-01
    -20.188  0.7567E+00  0.6082E-01
    -20.176  0.1022E+01  0.7357E-01
    -20.163  0.1890E+01  0.9715E-01
    -20.151  0.1133E+01  0.1113E+00
    -20.138  0.5760E+00  0.1185E+00
    -20.126  0.7519E+00  0.1278E+00
    -20.113  0.2357E+01  0.1573E+00
    -20.101  0.1428E+01  0.1751E+00
    -20.088  0.5549E+00  0.1820E+00
    -20.076  0.9098E+00  0.1933E+00
    -20.063  0.5674E+00  0.2004E+00
    -20.051  0.1940E+01  0.2246E+00
    -20.038  0.1847E+01  0.2477E+00
    -20.026  0.1722E+01  0.2691E+00
    -20.013  0.2443E+00  0.2722E+00
    -20.001  0.4411E+00  0.2777E+00
    -19.989  0.1017E+01  0.2904E+00
    -19.976  0.1369E+01  0.3074E+00
    -19.964  0.2461E+01  0.3381E+00
    -19.951  0.9538E+00  0.3500E+00
    -19.939  0.1469E+01  0.3684E+00
    -19.926  0.1396E+01  0.3858E+00
    -19.914  0.1135E+00  0.3872E+00
    -19.901  0.9612E-01  0.3884E+00
    -19.889  0.1168E+01  0.4030E+00
    -19.876  0.2511E+01  0.4343E+00
    -19.864  0.1882E+01  0.4578E+00
    -19.851  0.1776E+01  0.4799E+00
    -19.839  0.2878E+00  0.4835E+00
    -19.826  0.8200E+00  0.4937E+00
    -19.814  0.1858E+01  0.5169E+00
    -19.801  0.3703E+00  0.5215E+00
    -19.789  0.2888E-01  0.5219E+00
    -19.776  0.6719E+00  0.5303E+00
    -19.764  0.2977E+01  0.5674E+00
    -19.752  0.2321E+01  0.5964E+00
    -19.739  0.9924E+00  0.6088E+00
    -19.727  0.1864E+01  0.6320E+00
    -19.714  0.3790E+00  0.6367E+00
    -19.702  0.4996E-01  0.6374E+00
    -19.689  0.9940E+00  0.6498E+00
    -19.677  0.1765E+01  0.6718E+00
    -19.664  0.2991E+00  0.6755E+00
    -19.652  0.8081E+00  0.6856E+00
    -19.639  0.2035E+01  0.7110E+00
    -19.627  0.2130E+01  0.7375E+00
    -19.614  0.2176E+01  0.7647E+00
    -19.602  0.6214E+00  0.7724E+00
    -19.589  0.1414E+01  0.7901E+00
    -19.577  0.1440E+01  0.8080E+00
    -19.564  0.1246E+00  0.8096E+00
    -19.552  0.5542E-02  0.8097E+00
    -19.539  0.3563E+00  0.8141E+00
    -19.527  0.1872E+01  0.8375E+00
    -19.515  0.1468E+01  0.8558E+00
    -19.502  0.2322E+01  0.8847E+00
    -19.490  0.1580E+01  0.9045E+00
    -19.477  0.9545E+00  0.9164E+00
    -19.465  0.1942E+01  0.9406E+00
    -19.452  0.1163E+01  0.9551E+00
    -19.440  0.6626E+00  0.9634E+00
    -19.427  0.1081E+01  0.9768E+00
    -19.415  0.1733E+01  0.9985E+00
    -19.402  0.2492E+00  0.1002E+01
    -19.390  0.2459E-02  0.1002E+01
    -19.377  0.1201E-01  0.1002E+01
    -19.365  0.7948E+00  0.1012E+01
    -19.352  0.3804E+01  0.1059E+01
    -19.340  0.2645E+01  0.1092E+01
    -19.327  0.1749E+01  0.1114E+01
    -19.315  0.2646E+00  0.1117E+01
    -19.302  0.9141E+00  0.1129E+01
    -19.290  0.1815E+01  0.1151E+01
    -19.277  0.5271E+00  0.1158E+01
    -19.265  0.9485E+00  0.1170E+01
    -19.253  0.5217E+00  0.1176E+01
    -19.240  0.1544E+01  0.1195E+01
    -19.228  0.1300E+01  0.1212E+01
    -19.215  0.9228E-01  0.1213E+01
    -19.203  0.1322E+00  0.1214E+01
    -19.190  0.1343E+01  0.1231E+01
    -19.178  0.2505E+01  0.1262E+01
    -19.165  0.2074E+01  0.1288E+01
    -19.153  0.3231E+01  0.1329E+01
    -19.140  0.1410E+01  0.1346E+01
    -19.128  0.8114E-01  0.1347E+01
    -19.115  0.2774E+00  0.1351E+01
    -19.103  0.1771E+01  0.1373E+01
    -19.090  0.9849E+00  0.1385E+01
    -19.078  0.1447E+00  0.1387E+01
    -19.065  0.8259E+00  0.1397E+01
    -19.053  0.6392E+00  0.1405E+01
    -19.040  0.1155E+01  0.1420E+01
    -19.028  0.1692E+01  0.1441E+01
    -19.016  0.8274E+00  0.1451E+01
    -19.003  0.2027E+01  0.1476E+01
    -18.991  0.1921E+01  0.1500E+01
    -18.978  0.1458E+01  0.1518E+01
    -18.966  0.2805E+00  0.1522E+01
    -18.953  0.2452E+01  0.1553E+01
    -18.941  0.3192E+01  0.1592E+01
    -18.928  0.3552E+00  0.1597E+01
    -18.916  0.6032E-02  0.1597E+01
    -18.903  0.2968E+00  0.1601E+01
    -18.891  0.1794E+01  0.1623E+01
    -18.878  0.9451E+00  0.1635E+01
    -18.866  0.4306E-01  0.1635E+01
    -18.853  0.2227E+00  0.1638E+01
    -18.841  0.9495E+00  0.1650E+01
    -18.828  0.6225E+00  0.1658E+01
    -18.816  0.2771E+01  0.1692E+01
    -18.803  0.3715E+01  0.1739E+01
    -18.791  0.1060E+01  0.1752E+01
    -18.779  0.1504E+01  0.1771E+01
    -18.766  0.1361E+01  0.1787E+01
    -18.754  0.1064E+00  0.1789E+01
    -18.741  0.2376E+00  0.1792E+01
    -18.729  0.2155E+01  0.1819E+01
    -18.716  0.2942E+01  0.1855E+01
    -18.704  0.7944E+00  0.1865E+01
    -18.691  0.2590E-01  0.1866E+01
    -18.679  0.5963E-01  0.1866E+01
    -18.666  0.1055E+01  0.1880E+01
    -18.654  0.1695E+01  0.1901E+01
    -18.641  0.2648E+00  0.1904E+01
    -18.629  0.6627E-02  0.1904E+01
    -18.616  0.3590E+00  0.1909E+01
    -18.604  0.2604E+01  0.1941E+01
    -18.591  0.2509E+01  0.1972E+01
    -18.579  0.3127E+01  0.2011E+01
    -18.566  0.2002E+01  0.2036E+01
    -18.554  0.9200E+00  0.2048E+01
    -18.542  0.1853E+01  0.2071E+01
    -18.529  0.4647E+00  0.2077E+01
    -18.517  0.1016E-01  0.2077E+01
    -18.504  0.1124E+00  0.2078E+01
    -18.492  0.1403E+01  0.2096E+01
    -18.479  0.1923E+01  0.2120E+01
    -18.467  0.2031E+01  0.2145E+01
    -18.454  0.6691E+00  0.2153E+01
    -18.442  0.1792E-01  0.2154E+01
    -18.429  0.6436E-01  0.2154E+01
    -18.417  0.1147E+01  0.2169E+01
    -18.404  0.1669E+01  0.2190E+01
    -18.392  0.6229E+00  0.2197E+01
    -18.379  0.2050E+01  0.2223E+01
    -18.367  0.1910E+01  0.2247E+01
    -18.354  0.1107E+01  0.2261E+01
    -18.342  0.2877E+01  0.2296E+01
    -18.329  0.1078E+01  0.2310E+01
    -18.317  0.1751E+01  0.2332E+01
    -18.305  0.1949E+01  0.2356E+01
    -18.292  0.1895E+01  0.2380E+01
    -18.280  0.3444E+00  0.2384E+01
    -18.267  0.4536E-02  0.2384E+01
    -18.255  0.4811E-02  0.2384E+01
    -18.242  0.3549E+00  0.2388E+01
    -18.230  0.1847E+01  0.2412E+01
    -18.217  0.9641E+00  0.2424E+01
    -18.205  0.1461E+01  0.2442E+01
    -18.192  0.1408E+01  0.2459E+01
    -18.180  0.1160E+00  0.2461E+01
    -18.167  0.2504E-01  0.2461E+01
    -18.155  0.1074E+01  0.2475E+01
    -18.142  0.3885E+01  0.2523E+01
    -18.130  0.2609E+01  0.2556E+01
    -18.117  0.1508E+01  0.2574E+01
    -18.105  0.2175E+00  0.2577E+01
    -18.092  0.1261E+01  0.2593E+01
    -18.080  0.1746E+01  0.2615E+01
    -18.067  0.1090E+01  0.2628E+01
    -18.055  0.5703E+00  0.2635E+01
    -18.043  0.1865E+01  0.2659E+01
    -18.030  0.3187E+01  0.2698E+01
    -18.018  0.9427E+00  0.2710E+01
    -18.005  0.3038E-01  0.2710E+01
    -17.993  0.6503E-04  0.2710E+01
    -17.980  0.2608E-02  0.2710E+01
    -17.968  0.2578E+00  0.2714E+01
    -17.955  0.1745E+01  0.2735E+01
    -17.943  0.1026E+01  0.2748E+01
    -17.930  0.2477E+00  0.2751E+01
    -17.918  0.1664E+01  0.2772E+01
    -17.905  0.1726E+01  0.2794E+01
    -17.893  0.2317E+01  0.2823E+01
    -17.880  0.1702E+01  0.2844E+01
    -17.868  0.1715E+01  0.2865E+01
    -17.855  0.3701E+01  0.2911E+01
    -17.843  0.8136E+00  0.2921E+01
    -17.830  0.8246E-01  0.2922E+01
    -17.818  0.1177E+01  0.2937E+01
    -17.806  0.1636E+01  0.2958E+01
    -17.793  0.2160E+00  0.2960E+01
    -17.781  0.4860E+00  0.2966E+01
    -17.768  0.9166E+00  0.2978E+01
    -17.756  0.1312E+01  0.2994E+01
    -17.743  0.3829E+01  0.3042E+01
    -17.731  0.1109E+01  0.3056E+01
    -17.718  0.2387E-01  0.3056E+01
    -17.706  0.2978E-04  0.3056E+01
    -17.693  0.7647E-04  0.3056E+01
    -17.681  0.3355E-01  0.3056E+01
    -17.668  0.8851E+00  0.3067E+01
    -17.656  0.1840E+01  0.3090E+01
    -17.643  0.9231E+00  0.3102E+01
    -17.631  0.2109E+01  0.3128E+01
    -17.618  0.3155E+01  0.3168E+01
    -17.606  0.3058E+01  0.3206E+01
    -17.593  0.4105E+00  0.3211E+01
    -17.581  0.1357E+01  0.3228E+01
    -17.569  0.1884E+01  0.3251E+01
    -17.556  0.2012E+01  0.3276E+01
    -17.544  0.7885E+00  0.3286E+01
    -17.531  0.4996E+00  0.3292E+01
    -17.519  0.1849E+01  0.3316E+01
    -17.506  0.7199E+00  0.3324E+01
    -17.494  0.2457E-01  0.3325E+01
    -17.481  0.2493E-01  0.3325E+01
    -17.469  0.5253E+00  0.3332E+01
    -17.456  0.1272E+01  0.3348E+01
    -17.444  0.2621E+01  0.3380E+01
    -17.431  0.2702E+01  0.3414E+01
    -17.419  0.5399E+00  0.3421E+01
    -17.406  0.1149E-01  0.3421E+01
    -17.394  0.1005E+00  0.3422E+01
    -17.381  0.9007E+00  0.3433E+01
    -17.369  0.2169E+01  0.3460E+01
    -17.356  0.5114E+01  0.3524E+01
    -17.344  0.5024E+01  0.3587E+01
    -17.332  0.3424E+01  0.3630E+01
    -17.319  0.3158E+01  0.3669E+01
    -17.307  0.2553E+01  0.3701E+01
    -17.294  0.4329E+01  0.3755E+01
    -17.282  0.3384E+01  0.3797E+01
    -17.269  0.3070E+01  0.3835E+01
    -17.257  0.2955E+01  0.3872E+01
    -17.244  0.3282E+01  0.3913E+01
    -17.232  0.2597E+01  0.3946E+01
    -17.219  0.2633E+01  0.3978E+01
    -17.207  0.4794E+01  0.4038E+01
    -17.194  0.2684E+01  0.4072E+01
    -17.182  0.1741E+01  0.4093E+01
    -17.169  0.6394E+00  0.4101E+01
    -17.157  0.2609E+01  0.4134E+01
    -17.144  0.3862E+01  0.4182E+01
    -17.132  0.3845E+01  0.4230E+01
    -17.119  0.4392E+01  0.4285E+01
    -17.107  0.2989E+01  0.4322E+01
    -17.095  0.2421E+01  0.4352E+01
    -17.082  0.3988E+01  0.4402E+01
    -17.070  0.4131E+01  0.4454E+01
    -17.057  0.3815E+01  0.4501E+01
    -17.045  0.4415E+01  0.4556E+01
    -17.032  0.2990E+01  0.4594E+01
    -17.020  0.3662E+01  0.4639E+01
    -17.007  0.6427E+01  0.4719E+01
    -16.995  0.3131E+01  0.4758E+01
    -16.982  0.1104E+01  0.4772E+01
    -16.970  0.3031E+01  0.4810E+01
    -16.957  0.6962E+01  0.4897E+01
    -16.945  0.5444E+01  0.4965E+01
    -16.932  0.3095E+01  0.5003E+01
    -16.920  0.2237E+01  0.5031E+01
    -16.907  0.2124E+01  0.5058E+01
    -16.895  0.5371E+01  0.5125E+01
    -16.882  0.6789E+01  0.5209E+01
    -16.870  0.5569E+01  0.5279E+01
    -16.857  0.2856E+01  0.5315E+01
    -16.845  0.2109E+01  0.5341E+01
    -16.833  0.4614E+01  0.5398E+01
    -16.820  0.7290E+01  0.5489E+01
    -16.808  0.5131E+01  0.5553E+01
    -16.795  0.6742E+01  0.5637E+01
    -16.783  0.1251E+02  0.5794E+01
    -16.770  0.8644E+01  0.5901E+01
    -16.758  0.6024E+01  0.5977E+01
    -16.745  0.7749E+01  0.6073E+01
    -16.733  0.7326E+01  0.6165E+01
    -16.720  0.3942E+01  0.6214E+01
    -16.708  0.3993E+01  0.6264E+01
    -16.695  0.3640E+01  0.6309E+01
    -16.683  0.3710E+01  0.6355E+01
    -16.670  0.1871E+01  0.6379E+01
    -16.658  0.1767E+00  0.6381E+01
    -16.645  0.1921E-01  0.6381E+01
    -16.633  0.6718E+00  0.6389E+01
    -16.620  0.1991E+01  0.6414E+01
    -16.608  0.1753E+01  0.6436E+01
    -16.596  0.1562E+01  0.6456E+01
    -16.583  0.1607E+00  0.6458E+01
    -16.571  0.1563E-01  0.6458E+01
    -16.558  0.6817E+00  0.6466E+01
    -16.546  0.3143E+01  0.6505E+01
    -16.533  0.2129E+01  0.6532E+01
    -16.521  0.1876E+00  0.6534E+01
    -16.508  0.1313E-02  0.6534E+01
    -16.496  0.6996E-05  0.6534E+01
    -16.483  0.7009E-02  0.6534E+01
    -16.471  0.4297E+00  0.6540E+01
    -16.458  0.2016E+01  0.6565E+01
    -16.446  0.3008E+01  0.6603E+01
    -16.433  0.3985E+01  0.6652E+01
    -16.421  0.1374E+01  0.6669E+01
    -16.408  0.2342E+01  0.6699E+01
    -16.396  0.3308E+01  0.6740E+01
    -16.383  0.4557E+00  0.6746E+01
    -16.371  0.1850E-01  0.6746E+01
    -16.359  0.5960E+00  0.6753E+01
    -16.346  0.1917E+01  0.6777E+01
    -16.334  0.7570E+00  0.6787E+01
    -16.321  0.1686E+01  0.6808E+01
    -16.309  0.1126E+01  0.6822E+01
    -16.296  0.8399E-01  0.6823E+01
    -16.284  0.7487E+00  0.6832E+01
    -16.271  0.1884E+01  0.6856E+01
    -16.259  0.4304E+00  0.6861E+01
    -16.246  0.5965E+00  0.6868E+01
    -16.234  0.1915E+01  0.6892E+01
    -16.221  0.5483E+00  0.6899E+01
    -16.209  0.1739E-01  0.6899E+01
    -16.196  0.5312E+00  0.6906E+01
    -16.184  0.3469E+01  0.6949E+01
    -16.171  0.2048E+01  0.6975E+01
    -16.159  0.1273E+00  0.6976E+01
    -16.146  0.6572E+00  0.6985E+01
    -16.134  0.2370E+01  0.7014E+01
    -16.122  0.1529E+01  0.7033E+01
    -16.109  0.1245E+01  0.7049E+01
    -16.097  0.1674E+01  0.7070E+01
    -16.084  0.7804E+00  0.7079E+01
    -16.072  0.2198E+01  0.7107E+01
    -16.059  0.2949E+01  0.7143E+01
    -16.047  0.1896E+01  0.7167E+01
    -16.034  0.1208E+01  0.7182E+01
    -16.022  0.1706E+01  0.7203E+01
    -16.009  0.3874E+00  0.7208E+01
    -15.997  0.1542E+01  0.7228E+01
    -15.984  0.1292E+01  0.7244E+01
    -15.972  0.9497E-01  0.7245E+01
    -15.959  0.3785E+00  0.7250E+01
    -15.947  0.1863E+01  0.7273E+01
    -15.934  0.8202E+00  0.7283E+01
    -15.922  0.6444E+00  0.7291E+01
    -15.909  0.1913E+01  0.7315E+01
    -15.897  0.5226E+00  0.7321E+01
    -15.885  0.1205E-01  0.7322E+01
    -15.872  0.1963E+00  0.7324E+01
    -15.860  0.1638E+01  0.7345E+01
    -15.847  0.1173E+01  0.7359E+01
    -15.835  0.8992E-01  0.7360E+01
    -15.822  0.8967E+00  0.7371E+01
    -15.810  0.4437E+01  0.7427E+01
    -15.797  0.4157E+01  0.7479E+01
    -15.785  0.2239E+01  0.7507E+01
    -15.772  0.5782E+00  0.7514E+01
    -15.760  0.7947E+00  0.7524E+01
    -15.747  0.1853E+01  0.7547E+01
    -15.735  0.4093E+00  0.7552E+01
    -15.722  0.1687E-01  0.7552E+01
    -15.710  0.7051E+00  0.7561E+01
    -15.697  0.3663E+01  0.7607E+01
    -15.685  0.1850E+01  0.7630E+01
    -15.672  0.9471E+00  0.7642E+01
    -15.660  0.6870E+00  0.7650E+01
    -15.648  0.1633E+01  0.7670E+01
    -15.635  0.1961E+01  0.7695E+01
    -15.623  0.1949E+01  0.7719E+01
    -15.610  0.4389E+00  0.7725E+01
    -15.598  0.8048E-02  0.7725E+01
    -15.585  0.4228E-01  0.7725E+01
    -15.573  0.9737E+00  0.7737E+01
    -15.560  0.1794E+01  0.7760E+01
    -15.548  0.9149E+00  0.7771E+01
    -15.535  0.1893E+01  0.7795E+01
    -15.523  0.5269E+00  0.7801E+01
    -15.510  0.1152E-01  0.7802E+01
    -15.498  0.2827E-02  0.7802E+01
    -15.485  0.2900E+00  0.7805E+01
    -15.473  0.2425E+01  0.7836E+01
    -15.460  0.3426E+01  0.7878E+01
    -15.448  0.1797E+01  0.7901E+01
    -15.435  0.3243E+01  0.7941E+01
    -15.423  0.4058E+01  0.7992E+01
    -15.410  0.1589E+01  0.8012E+01
    -15.398  0.6133E+00  0.8019E+01
    -15.386  0.1911E+01  0.8043E+01
    -15.373  0.6384E+00  0.8051E+01
    -15.361  0.1605E-01  0.8051E+01
    -15.348  0.1988E-01  0.8051E+01
    -15.336  0.7299E+00  0.8061E+01
    -15.323  0.2675E+01  0.8094E+01
    -15.311  0.2311E+01  0.8123E+01
    -15.298  0.6471E+00  0.8131E+01
    -15.286  0.9617E+00  0.8143E+01
    -15.273  0.7212E+00  0.8152E+01
    -15.261  0.2345E+01  0.8181E+01
    -15.248  0.2731E+01  0.8215E+01
    -15.236  0.6940E+00  0.8224E+01
    -15.223  0.1760E-01  0.8224E+01
    -15.211  0.1480E-02  0.8224E+01
    -15.198  0.1798E+00  0.8226E+01
    -15.186  0.1575E+01  0.8246E+01
    -15.173  0.1403E+01  0.8263E+01
    -15.161  0.1647E+01  0.8284E+01
    -15.149  0.1266E+01  0.8300E+01
    -15.136  0.1074E+00  0.8301E+01
    -15.124  0.7574E+00  0.8311E+01
    -15.111  0.2339E+01  0.8340E+01
    -15.099  0.3729E+01  0.8386E+01
    -15.086  0.2270E+01  0.8415E+01
    -15.074  0.8624E+00  0.8425E+01
    -15.061  0.2960E+01  0.8462E+01
    -15.049  0.3595E+01  0.8507E+01
    -15.036  0.1807E+01  0.8530E+01
    -15.024  0.8817E+00  0.8541E+01
    -15.011  0.1890E+01  0.8564E+01
    -14.999  0.4282E+00  0.8570E+01
    -14.986  0.2282E-01  0.8570E+01
    -14.974  0.6422E+00  0.8578E+01
    -14.961  0.2526E+01  0.8609E+01
    -14.949  0.5194E+01  0.8674E+01
    -14.936  0.6882E+01  0.8760E+01
    -14.924  0.2936E+01  0.8797E+01
    -14.912  0.3466E+01  0.8840E+01
    -14.899  0.4945E+01  0.8901E+01
    -14.887  0.3762E+01  0.8948E+01
    -14.874  0.4962E+01  0.9010E+01
    -14.862  0.2913E+01  0.9047E+01
    -14.849  0.1168E+01  0.9061E+01
    -14.837  0.5789E+01  0.9133E+01
    -14.824  0.6131E+01  0.9210E+01
    -14.812  0.3617E+01  0.9255E+01
    -14.799  0.3861E+01  0.9303E+01
    -14.787  0.4426E+01  0.9358E+01
    -14.774  0.5298E+01  0.9424E+01
    -14.762  0.8446E+01  0.9530E+01
    -14.749  0.7788E+01  0.9627E+01
    -14.737  0.5695E+01  0.9698E+01
    -14.724  0.8399E+01  0.9803E+01
    -14.712  0.6239E+01  0.9881E+01
    -14.699  0.5990E+01  0.9955E+01
    -14.687  0.4958E+01  0.1002E+02
    -14.675  0.3135E+01  0.1006E+02
    -14.662  0.3587E+01  0.1010E+02
    -14.650  0.5008E+01  0.1016E+02
    -14.637  0.3562E+01  0.1021E+02
    -14.625  0.1914E+01  0.1023E+02
    -14.612  0.4804E+01  0.1029E+02
    -14.600  0.2813E+01  0.1033E+02
    -14.587  0.1991E+01  0.1035E+02
    -14.575  0.1039E+01  0.1036E+02
    -14.562  0.7028E+00  0.1037E+02
    -14.550  0.2678E+01  0.1041E+02
    -14.537  0.5776E+01  0.1048E+02
    -14.525  0.4510E+01  0.1054E+02
    -14.512  0.1737E+01  0.1056E+02
    -14.500  0.1786E+01  0.1058E+02
    -14.487  0.2097E+01  0.1061E+02
    -14.475  0.1318E+01  0.1062E+02
    -14.462  0.4089E+01  0.1067E+02
    -14.450  0.4012E+01  0.1072E+02
    -14.438  0.5748E+00  0.1073E+02
    -14.425  0.8802E+00  0.1074E+02
    -14.413  0.2530E+01  0.1077E+02
    -14.400  0.2893E+01  0.1081E+02
    -14.388  0.3326E+01  0.1085E+02
    -14.375  0.5531E+01  0.1092E+02
    -14.363  0.5704E+01  0.1099E+02
    -14.350  0.2201E+01  0.1102E+02
    -14.338  0.3063E+01  0.1106E+02
    -14.325  0.3393E+01  0.1110E+02
    -14.313  0.3247E+01  0.1114E+02
    -14.300  0.4640E+01  0.1120E+02
    -14.288  0.4323E+01  0.1125E+02
    -14.275  0.2570E+01  0.1128E+02
    -14.263  0.1719E+01  0.1130E+02
    -14.250  0.1054E+01  0.1132E+02
    -14.238  0.2340E+01  0.1135E+02
    -14.225  0.1626E+01  0.1137E+02
    -14.213  0.2592E+01  0.1140E+02
    -14.200  0.3566E+01  0.1144E+02
    -14.188  0.1818E+01  0.1147E+02
    -14.176  0.1547E+01  0.1149E+02
    -14.163  0.2347E+01  0.1151E+02
    -14.151  0.2353E+01  0.1154E+02
    -14.138  0.1452E+01  0.1156E+02
    -14.126  0.2214E+01  0.1159E+02
    -14.113  0.4323E+01  0.1164E+02
    -14.101  0.3034E+01  0.1168E+02
    -14.088  0.1660E+01  0.1170E+02
    -14.076  0.3173E+01  0.1174E+02
    -14.063  0.2437E+01  0.1177E+02
    -14.051  0.5516E+01  0.1184E+02
    -14.038  0.7637E+01  0.1194E+02
    -14.026  0.6892E+01  0.1202E+02
    -14.013  0.3142E+01  0.1206E+02
    -14.001  0.2971E+01  0.1210E+02
    -13.988  0.3100E+01  0.1214E+02
    -13.976  0.2767E+01  0.1217E+02
    -13.963  0.2645E+01  0.1220E+02
    -13.951  0.3765E+01  0.1225E+02
    -13.939  0.2473E+01  0.1228E+02
    -13.926  0.4247E+00  0.1229E+02
    -13.914  0.3349E+01  0.1233E+02
    -13.901  0.7301E+01  0.1242E+02
    -13.889  0.4785E+01  0.1248E+02
    -13.876  0.2583E+01  0.1251E+02
    -13.864  0.3815E+01  0.1256E+02
    -13.851  0.7019E+01  0.1265E+02
    -13.839  0.5737E+01  0.1272E+02
    -13.826  0.4426E+01  0.1277E+02
    -13.814  0.6414E+01  0.1285E+02
    -13.801  0.8735E+01  0.1296E+02
    -13.789  0.5135E+01  0.1303E+02
    -13.776  0.4580E+01  0.1308E+02
    -13.764  0.5952E+01  0.1316E+02
    -13.751  0.6226E+01  0.1324E+02
    -13.739  0.5861E+01  0.1331E+02
    -13.726  0.3217E+01  0.1335E+02
    -13.714  0.6058E+01  0.1343E+02
    -13.702  0.6161E+01  0.1350E+02
    -13.689  0.2218E+01  0.1353E+02
    -13.677  0.2892E+01  0.1357E+02
    -13.664  0.8058E+01  0.1367E+02
    -13.652  0.5935E+01  0.1374E+02
    -13.639  0.2561E+01  0.1377E+02
    -13.627  0.2546E+01  0.1380E+02
    -13.614  0.4055E+01  0.1385E+02
    -13.602  0.3130E+01  0.1389E+02
    -13.589  0.3778E+01  0.1394E+02
    -13.577  0.3575E+01  0.1399E+02
    -13.564  0.1822E+01  0.1401E+02
    -13.552  0.3336E+01  0.1405E+02
    -13.539  0.4146E+01  0.1410E+02
    -13.527  0.2468E+01  0.1413E+02
    -13.514  0.3171E+01  0.1417E+02
    -13.502  0.3303E+01  0.1421E+02
    -13.489  0.2029E+01  0.1424E+02
    -13.477  0.8635E+00  0.1425E+02
    -13.465  0.2795E+01  0.1428E+02
    -13.452  0.1515E+01  0.1430E+02
    -13.440  0.2011E+01  0.1433E+02
    -13.427  0.2413E+01  0.1436E+02
    -13.415  0.3622E+01  0.1440E+02
    -13.402  0.7719E+00  0.1441E+02
    -13.390  0.5161E+00  0.1442E+02
    -13.377  0.8779E+00  0.1443E+02
    -13.365  0.1328E+00  0.1443E+02
    -13.352  0.2376E-02  0.1443E+02
    -13.340  0.1531E+00  0.1443E+02
    -13.327  0.1657E+01  0.1445E+02
    -13.315  0.2755E+01  0.1449E+02
    -13.302  0.1480E+01  0.1451E+02
    -13.290  0.2933E+00  0.1451E+02
    -13.277  0.1839E+01  0.1453E+02
    -13.265  0.2606E+01  0.1457E+02
    -13.252  0.1904E+01  0.1459E+02
    -13.240  0.2102E+01  0.1462E+02
    -13.228  0.5875E+00  0.1462E+02
    -13.215  0.1335E-01  0.1462E+02
    -13.203  0.3135E-01  0.1462E+02
    -13.190  0.9431E+00  0.1464E+02
    -13.178  0.3438E+01  0.1468E+02
    -13.165  0.2892E+01  0.1472E+02
    -13.153  0.3873E+00  0.1472E+02
    -13.140  0.4427E-02  0.1472E+02
    -13.128  0.3899E-04  0.1472E+02
    -13.115  0.2094E-01  0.1472E+02
    -13.103  0.7216E+00  0.1473E+02
    -13.090  0.1974E+01  0.1475E+02
    -13.078  0.1693E+01  0.1477E+02
    -13.065  0.1953E+01  0.1480E+02
    -13.053  0.2201E+01  0.1483E+02
    -13.040  0.2912E+01  0.1486E+02
    -13.028  0.2184E+01  0.1489E+02
    -13.015  0.3702E+00  0.1490E+02
    -13.003  0.1891E+01  0.1492E+02
    -12.990  0.3038E+01  0.1496E+02
    -12.978  0.1012E+01  0.1497E+02
    -12.966  0.3838E-01  0.1497E+02
    -12.953  0.9172E-03  0.1497E+02
    -12.941  0.1006E+00  0.1497E+02
    -12.928  0.8245E+00  0.1498E+02
    -12.916  0.6635E+00  0.1499E+02
    -12.903  0.1873E+01  0.1501E+02
    -12.891  0.4678E+01  0.1507E+02
    -12.878  0.2496E+01  0.1510E+02
    -12.866  0.1676E+01  0.1512E+02
    -12.853  0.2549E+01  0.1515E+02
    -12.841  0.5209E+00  0.1516E+02
    -12.828  0.4515E-01  0.1516E+02
    -12.816  0.6596E+00  0.1517E+02
    -12.803  0.2496E+01  0.1520E+02
    -12.791  0.5199E+01  0.1527E+02
    -12.778  0.2358E+01  0.1530E+02
    -12.766  0.1769E+01  0.1532E+02
    -12.753  0.2472E+01  0.1535E+02
    -12.741  0.4119E+00  0.1535E+02
    -12.729  0.6209E+00  0.1536E+02
    -12.716  0.2164E+01  0.1539E+02
    -12.704  0.2751E+01  0.1542E+02
    -12.691  0.2983E+01  0.1546E+02
    -12.679  0.6904E+00  0.1547E+02
    -12.666  0.1614E-01  0.1547E+02
    -12.654  0.2335E-04  0.1547E+02
    -12.641  0.3342E-04  0.1547E+02
    -12.629  0.1913E-01  0.1547E+02
    -12.616  0.7691E+00  0.1548E+02
    -12.604  0.3484E+01  0.1552E+02
    -12.591  0.3611E+01  0.1557E+02
    -12.579  0.1575E+01  0.1559E+02
    -12.566  0.2038E+01  0.1561E+02
    -12.554  0.2598E+01  0.1564E+02
    -12.541  0.1255E+01  0.1566E+02
    -12.529  0.8880E+00  0.1567E+02
    -12.516  0.2195E+01  0.1570E+02
    -12.504  0.2205E+01  0.1573E+02
    -12.492  0.8792E+00  0.1574E+02
    -12.479  0.4390E-01  0.1574E+02
    -12.467  0.5429E+00  0.1574E+02
    -12.454  0.1933E+01  0.1577E+02
    -12.442  0.1281E+01  0.1578E+02
    -12.429  0.1915E+01  0.1581E+02
    -12.417  0.5251E+00  0.1582E+02
    -12.404  0.1159E+01  0.1583E+02
    -12.392  0.2548E+01  0.1586E+02
    -12.379  0.2052E+01  0.1589E+02
    -12.367  0.3412E+00  0.1589E+02
    -12.354  0.5075E-02  0.1589E+02
    -12.342  0.8976E-01  0.1589E+02
    -12.329  0.8111E+00  0.1590E+02
    -12.317  0.1347E+01  0.1592E+02
    -12.304  0.3953E+01  0.1597E+02
    -12.292  0.2938E+01  0.1601E+02
    -12.279  0.2203E+01  0.1603E+02
    -12.267  0.9390E+00  0.1604E+02
    -12.255  0.5803E+00  0.1605E+02
    -12.242  0.3485E+01  0.1610E+02
    -12.230  0.2024E+01  0.1612E+02
    -12.217  0.9798E-01  0.1612E+02
    -12.205  0.3056E-03  0.1612E+02
    -12.192  0.5312E-07  0.1612E+02
    -12.180  0.1765E-04  0.1612E+02
    -12.167  0.1345E-01  0.1612E+02
    -12.155  0.6185E+00  0.1613E+02
    -12.142  0.2776E+01  0.1616E+02
    -12.130  0.2429E+01  0.1619E+02
    -12.117  0.1304E+01  0.1621E+02
    -12.105  0.1796E+01  0.1623E+02
    -12.092  0.3462E+00  0.1624E+02
    -12.080  0.1492E+01  0.1626E+02
    -12.067  0.3700E+01  0.1630E+02
    -12.055  0.9048E+00  0.1631E+02
    -12.042  0.4017E+00  0.1632E+02
    -12.030  0.1852E+01  0.1634E+02
    -12.018  0.8211E+00  0.1635E+02
    -12.005  0.5787E+00  0.1636E+02
    -11.993  0.2045E+01  0.1638E+02
    -11.980  0.2157E+01  0.1641E+02
    -11.968  0.1335E+01  0.1643E+02
    -11.955  0.9676E+00  0.1644E+02
    -11.943  0.1829E+01  0.1646E+02
    -11.930  0.3328E+00  0.1647E+02
    -11.918  0.4246E-02  0.1647E+02
    -11.905  0.3128E-02  0.1647E+02
    -11.893  0.2837E+00  0.1647E+02
    -11.880  0.1779E+01  0.1649E+02
    -11.868  0.9709E+00  0.1651E+02
    -11.855  0.9773E-01  0.1651E+02
    -11.843  0.1323E+01  0.1652E+02
    -11.830  0.4018E+01  0.1657E+02
    -11.818  0.2458E+01  0.1660E+02
    -11.805  0.1956E+01  0.1663E+02
    -11.793  0.1296E+01  0.1664E+02
    -11.780  0.9842E+00  0.1666E+02
    -11.768  0.2257E+00  0.1666E+02
    -11.756  0.4379E+00  0.1666E+02
    -11.743  0.1891E+01  0.1669E+02
    -11.731  0.7607E+00  0.1670E+02
    -11.718  0.9327E+00  0.1671E+02
    -11.706  0.1840E+01  0.1673E+02
    -11.693  0.1096E+01  0.1675E+02
    -11.681  0.1853E+01  0.1677E+02
    -11.668  0.4297E+00  0.1677E+02
    -11.656  0.6537E+00  0.1678E+02
    -11.643  0.1909E+01  0.1681E+02
    -11.631  0.4969E+00  0.1681E+02
    -11.618  0.9438E-02  0.1681E+02
    -11.606  0.1044E-04  0.1681E+02
    -11.593  0.6657E-03  0.1681E+02
    -11.581  0.1214E+00  0.1681E+02
    -11.568  0.1481E+01  0.1683E+02
    -11.556  0.2531E+01  0.1686E+02
    -11.543  0.3012E+01  0.1690E+02
    -11.531  0.3527E+01  0.1695E+02
    -11.519  0.3782E+01  0.1699E+02
    -11.506  0.9154E+00  0.1700E+02
    -11.494  0.2173E-01  0.1700E+02
    -11.481  0.1114E-03  0.1700E+02
    -11.469  0.3377E-01  0.1701E+02
    -11.456  0.8876E+00  0.1702E+02
    -11.444  0.1825E+01  0.1704E+02
    -11.431  0.3280E+00  0.1704E+02
    -11.419  0.4292E-02  0.1704E+02
    -11.406  0.4978E-01  0.1704E+02
    -11.394  0.1002E+01  0.1706E+02
    -11.381  0.1740E+01  0.1708E+02
    -11.369  0.2840E+00  0.1708E+02
    -11.356  0.1483E+00  0.1708E+02
    -11.344  0.1530E+01  0.1710E+02
    -11.331  0.2093E+01  0.1713E+02
    -11.319  0.2378E+01  0.1716E+02
    -11.306  0.1534E+01  0.1718E+02
    -11.294  0.1813E+01  0.1720E+02
    -11.282  0.1207E+01  0.1722E+02
    -11.269  0.7345E-01  0.1722E+02
    -11.257  0.2746E-01  0.1722E+02
    -11.244  0.8945E+00  0.1723E+02
    -11.232  0.2911E+01  0.1726E+02
    -11.219  0.2703E+01  0.1730E+02
    -11.207  0.1949E+01  0.1732E+02
    -11.194  0.7059E+00  0.1733E+02
    -11.182  0.4432E-01  0.1733E+02
    -11.169  0.1700E-01  0.1733E+02
    -11.157  0.7543E+00  0.1734E+02
    -11.144  0.2876E+01  0.1738E+02
    -11.132  0.2339E+01  0.1741E+02
    -11.119  0.1547E+01  0.1743E+02
    -11.107  0.1616E+00  0.1743E+02
    -11.094  0.1248E-02  0.1743E+02
    -11.082  0.5986E-04  0.1743E+02
    -11.069  0.3217E-01  0.1743E+02
    -11.057  0.1191E+01  0.1744E+02
    -11.045  0.4622E+01  0.1750E+02
    -11.032  0.3053E+01  0.1754E+02
    -11.020  0.8088E+00  0.1755E+02
    -11.007  0.1906E+01  0.1757E+02
    -10.995  0.6833E+00  0.1758E+02
    -10.982  0.2175E+00  0.1758E+02
    -10.970  0.2255E+01  0.1761E+02
    -10.957  0.3224E+01  0.1765E+02
    -10.945  0.2880E+01  0.1769E+02
    -10.932  0.3331E+01  0.1773E+02
    -10.920  0.4193E+00  0.1773E+02
    -10.907  0.3613E-02  0.1773E+02
    -10.895  0.1723E-05  0.1773E+02
    -10.882  0.4022E-05  0.1773E+02
    -10.870  0.5130E-02  0.1773E+02
    -10.857  0.3668E+00  0.1774E+02
    -10.845  0.1855E+01  0.1776E+02
    -10.832  0.8240E+00  0.1777E+02
    -10.820  0.1629E+00  0.1777E+02
    -10.808  0.1340E+01  0.1779E+02
    -10.795  0.1872E+01  0.1781E+02
    -10.783  0.2823E+01  0.1785E+02
    -10.770  0.3255E+01  0.1789E+02
    -10.758  0.1945E+01  0.1791E+02
    -10.745  0.1986E+01  0.1794E+02
    -10.733  0.1056E+01  0.1795E+02
    -10.720  0.3490E+01  0.1800E+02
    -10.708  0.2480E+01  0.1803E+02
    -10.695  0.2004E+01  0.1805E+02
    -10.683  0.6816E+00  0.1806E+02
    -10.670  0.1885E-01  0.1806E+02
    -10.658  0.9656E-01  0.1806E+02
    -10.645  0.1713E+01  0.1808E+02
    -10.633  0.3456E+01  0.1813E+02
    -10.620  0.1604E+01  0.1815E+02
    -10.608  0.1592E+01  0.1817E+02
    -10.595  0.2584E+01  0.1820E+02
    -10.583  0.1959E+01  0.1822E+02
    -10.571  0.2202E+01  0.1825E+02
    -10.558  0.3595E+01  0.1830E+02
    -10.546  0.3717E+01  0.1834E+02
    -10.533  0.1123E+01  0.1836E+02
    -10.521  0.3918E+01  0.1840E+02
    -10.508  0.4902E+01  0.1847E+02
    -10.496  0.4538E+01  0.1852E+02
    -10.483  0.5433E+01  0.1859E+02
    -10.471  0.3688E+01  0.1864E+02
    -10.458  0.2888E+01  0.1867E+02
    -10.446  0.5127E+01  0.1874E+02
    -10.433  0.3126E+01  0.1878E+02
    -10.421  0.2311E+01  0.1880E+02
    -10.408  0.1130E+01  0.1882E+02
    -10.396  0.2718E+01  0.1885E+02
    -10.383  0.2518E+01  0.1888E+02
    -10.371  0.2677E+01  0.1892E+02
    -10.358  0.4088E+01  0.1897E+02
    -10.346  0.7276E+01  0.1906E+02
    -10.333  0.7199E+01  0.1915E+02
    -10.321  0.5010E+01  0.1921E+02
    -10.309  0.1864E+01  0.1923E+02
    -10.296  0.1113E+01  0.1925E+02
    -10.284  0.4774E+01  0.1931E+02
    -10.271  0.5007E+01  0.1937E+02
    -10.259  0.3331E+01  0.1941E+02
    -10.246  0.3874E+01  0.1946E+02
    -10.234  0.5917E+01  0.1953E+02
    -10.221  0.4225E+01  0.1959E+02
    -10.209  0.1701E+01  0.1961E+02
    -10.196  0.4079E+01  0.1966E+02
    -10.184  0.3496E+01  0.1970E+02
    -10.171  0.3908E+01  0.1975E+02
    -10.159  0.4592E+01  0.1981E+02
    -10.146  0.7258E+01  0.1990E+02
    -10.134  0.6002E+01  0.1997E+02
    -10.121  0.3719E+01  0.2002E+02
    -10.109  0.3962E+01  0.2007E+02
    -10.096  0.2341E+01  0.2010E+02
    -10.084  0.2958E+01  0.2014E+02
    -10.072  0.1017E+02  0.2026E+02
    -10.059  0.7371E+01  0.2035E+02
    -10.047  0.3017E+01  0.2039E+02
    -10.034  0.1263E+01  0.2041E+02
    -10.022  0.1575E+01  0.2043E+02
    -10.009  0.1393E+01  0.2044E+02
     -9.997  0.1043E+01  0.2046E+02
     -9.984  0.3977E+01  0.2051E+02
     -9.972  0.5852E+01  0.2058E+02
     -9.959  0.3835E+01  0.2063E+02
     -9.947  0.3219E+01  0.2067E+02
     -9.934  0.1027E+01  0.2068E+02
     -9.922  0.3367E+01  0.2072E+02
     -9.909  0.4711E+01  0.2078E+02
     -9.897  0.4515E+01  0.2084E+02
     -9.884  0.3625E+01  0.2088E+02
     -9.872  0.3074E+01  0.2092E+02
     -9.859  0.3535E+01  0.2097E+02
     -9.847  0.3168E+01  0.2101E+02
     -9.835  0.2544E+01  0.2104E+02
     -9.822  0.1619E+01  0.2106E+02
     -9.810  0.2772E+00  0.2106E+02
     -9.797  0.8564E+00  0.2107E+02
     -9.785  0.6410E+00  0.2108E+02
     -9.772  0.1766E+01  0.2110E+02
     -9.760  0.4138E+01  0.2115E+02
     -9.747  0.2145E+01  0.2118E+02
     -9.735  0.2700E+01  0.2121E+02
     -9.722  0.2318E+01  0.2124E+02
     -9.710  0.6455E+01  0.2132E+02
     -9.697  0.9372E+01  0.2144E+02
     -9.685  0.8095E+01  0.2154E+02
     -9.672  0.7831E+01  0.2164E+02
     -9.660  0.6410E+01  0.2172E+02
     -9.647  0.2474E+01  0.2175E+02
     -9.635  0.7949E+00  0.2176E+02
     -9.622  0.2216E+01  0.2179E+02
     -9.610  0.3605E+01  0.2183E+02
     -9.598  0.2024E+01  0.2186E+02
     -9.585  0.2692E+01  0.2189E+02
     -9.573  0.5153E+01  0.2195E+02
     -9.560  0.4522E+01  0.2201E+02
     -9.548  0.2607E+01  0.2204E+02
     -9.535  0.4595E+01  0.2210E+02
     -9.523  0.3320E+01  0.2214E+02
     -9.510  0.1652E+01  0.2216E+02
     -9.498  0.9554E+00  0.2218E+02
     -9.485  0.1754E+01  0.2220E+02
     -9.473  0.1991E+01  0.2222E+02
     -9.460  0.4565E+01  0.2228E+02
     -9.448  0.2681E+01  0.2231E+02
     -9.435  0.3030E+01  0.2235E+02
     -9.423  0.2509E+01  0.2238E+02
     -9.410  0.3031E+01  0.2242E+02
     -9.398  0.2750E+01  0.2245E+02
     -9.385  0.3363E+01  0.2250E+02
     -9.373  0.3111E+01  0.2253E+02
     -9.361  0.4383E+01  0.2259E+02
     -9.348  0.8401E+01  0.2269E+02
     -9.336  0.5986E+01  0.2277E+02
     -9.323  0.5290E+01  0.2283E+02
     -9.311  0.6183E+01  0.2291E+02
     -9.298  0.3537E+01  0.2296E+02
     -9.286  0.2989E+01  0.2299E+02
     -9.273  0.1732E+01  0.2301E+02
     -9.261  0.1672E+01  0.2304E+02
     -9.248  0.2054E+01  0.2306E+02
     -9.236  0.1523E+01  0.2308E+02
     -9.223  0.2851E+00  0.2308E+02
     -9.211  0.8994E+00  0.2309E+02
     -9.198  0.5991E+00  0.2310E+02
     -9.186  0.1417E+01  0.2312E+02
     -9.173  0.3241E+01  0.2316E+02
     -9.161  0.5339E+01  0.2323E+02
     -9.148  0.5242E+01  0.2329E+02
     -9.136  0.7086E+01  0.2338E+02
     -9.123  0.8478E+01  0.2349E+02
     -9.111  0.4546E+01  0.2354E+02
     -9.099  0.4971E+01  0.2361E+02
     -9.086  0.5546E+01  0.2367E+02
     -9.074  0.2995E+01  0.2371E+02
     -9.061  0.5027E+00  0.2372E+02
     -9.049  0.2775E+01  0.2375E+02
     -9.036  0.4174E+01  0.2380E+02
     -9.024  0.2068E+01  0.2383E+02
     -9.011  0.1789E+01  0.2385E+02
     -8.999  0.1573E+01  0.2387E+02
     -8.986  0.2466E+01  0.2390E+02
     -8.974  0.2534E+01  0.2393E+02
     -8.961  0.4237E+01  0.2399E+02
     -8.949  0.3618E+01  0.2403E+02
     -8.936  0.2083E+01  0.2406E+02
     -8.924  0.2008E+01  0.2408E+02
     -8.911  0.3383E+01  0.2413E+02
     -8.899  0.4968E+01  0.2419E+02
     -8.886  0.7682E+01  0.2428E+02
     -8.874  0.8888E+01  0.2439E+02
     -8.862  0.7908E+01  0.2449E+02
     -8.849  0.5961E+01  0.2457E+02
     -8.837  0.4888E+01  0.2463E+02
     -8.824  0.4672E+01  0.2469E+02
     -8.812  0.2629E+01  0.2472E+02
     -8.799  0.9677E+00  0.2473E+02
     -8.787  0.8646E-01  0.2473E+02
     -8.774  0.6273E-03  0.2473E+02
     -8.762  0.1284E-01  0.2473E+02
     -8.749  0.5881E+00  0.2474E+02
     -8.737  0.3024E+01  0.2478E+02
     -8.724  0.4402E+01  0.2483E+02
     -8.712  0.1193E+01  0.2485E+02
     -8.699  0.8764E+00  0.2486E+02
     -8.687  0.5324E+01  0.2493E+02
     -8.674  0.6922E+01  0.2501E+02
     -8.662  0.3483E+01  0.2505E+02
     -8.649  0.8236E+00  0.2507E+02
     -8.637  0.1663E+01  0.2509E+02
     -8.625  0.5343E+01  0.2515E+02
     -8.612  0.7962E+01  0.2525E+02
     -8.600  0.1022E+02  0.2538E+02
     -8.587  0.5975E+01  0.2545E+02
     -8.575  0.2043E+01  0.2548E+02
     -8.562  0.5501E+00  0.2549E+02
     -8.550  0.1863E+01  0.2551E+02
     -8.537  0.8861E+00  0.2552E+02
     -8.525  0.1464E+01  0.2554E+02
     -8.512  0.3447E+01  0.2558E+02
     -8.500  0.4110E+01  0.2563E+02
     -8.487  0.7901E+01  0.2573E+02
     -8.475  0.5444E+01  0.2580E+02
     -8.462  0.9762E+00  0.2581E+02
     -8.450  0.2278E+01  0.2584E+02
     -8.437  0.2107E+01  0.2587E+02
     -8.425  0.2091E+01  0.2589E+02
     -8.412  0.3117E+01  0.2593E+02
     -8.400  0.4452E+01  0.2599E+02
     -8.388  0.3596E+01  0.2603E+02
     -8.375  0.1800E+01  0.2605E+02
     -8.363  0.1810E+01  0.2608E+02
     -8.350  0.2798E+01  0.2611E+02
     -8.338  0.7026E+01  0.2620E+02
     -8.325  0.4965E+01  0.2626E+02
     -8.313  0.3103E+01  0.2630E+02
     -8.300  0.3770E+01  0.2635E+02
     -8.288  0.1034E+02  0.2648E+02
     -8.275  0.6907E+01  0.2656E+02
     -8.263  0.4818E+01  0.2662E+02
     -8.250  0.4868E+01  0.2668E+02
     -8.238  0.3393E+01  0.2673E+02
     -8.225  0.4381E+01  0.2678E+02
     -8.213  0.5745E+01  0.2685E+02
     -8.200  0.4967E+01  0.2691E+02
     -8.188  0.2068E+01  0.2694E+02
     -8.175  0.2191E+01  0.2697E+02
     -8.163  0.2979E+01  0.2700E+02
     -8.151  0.2310E+01  0.2703E+02
     -8.138  0.1708E+01  0.2705E+02
     -8.126  0.3342E+01  0.2710E+02
     -8.113  0.6421E+01  0.2718E+02
     -8.101  0.1035E+02  0.2730E+02
     -8.088  0.4892E+01  0.2737E+02
     -8.076  0.7881E+01  0.2746E+02
     -8.063  0.8345E+01  0.2757E+02
     -8.051  0.3737E+01  0.2762E+02
     -8.038  0.2729E+01  0.2765E+02
     -8.026  0.4084E+01  0.2770E+02
     -8.013  0.3448E+01  0.2774E+02
     -8.001  0.1965E+01  0.2777E+02
     -7.988  0.1663E+00  0.2777E+02
     -7.976  0.2032E-01  0.2777E+02
     -7.963  0.1303E+01  0.2779E+02
     -7.951  0.9458E+01  0.2790E+02
     -7.938  0.1254E+02  0.2806E+02
     -7.926  0.6655E+01  0.2814E+02
     -7.913  0.5553E+01  0.2821E+02
     -7.901  0.5586E+01  0.2828E+02
     -7.889  0.6098E+01  0.2836E+02
     -7.876  0.5846E+01  0.2843E+02
     -7.864  0.1137E+02  0.2857E+02
     -7.851  0.9567E+01  0.2869E+02
     -7.839  0.5159E+01  0.2876E+02
     -7.826  0.5496E+01  0.2883E+02
     -7.814  0.6353E+01  0.2890E+02
     -7.801  0.1183E+02  0.2905E+02
     -7.789  0.7220E+01  0.2914E+02
     -7.776  0.2675E+01  0.2918E+02
     -7.764  0.2178E+01  0.2920E+02
     -7.751  0.1818E+01  0.2923E+02
     -7.739  0.4344E+01  0.2928E+02
     -7.726  0.3013E+01  0.2932E+02
     -7.714  0.2212E+01  0.2934E+02
     -7.701  0.3606E+01  0.2939E+02
     -7.689  0.1954E+01  0.2941E+02
     -7.676  0.1903E+01  0.2944E+02
     -7.664  0.2583E+01  0.2947E+02
     -7.652  0.5249E+01  0.2954E+02
     -7.639  0.5096E+01  0.2960E+02
     -7.627  0.3724E+01  0.2965E+02
     -7.614  0.1348E+01  0.2966E+02
     -7.602  0.4359E+01  0.2972E+02
     -7.589  0.5231E+01  0.2978E+02
     -7.577  0.3216E+01  0.2982E+02
     -7.564  0.1204E+01  0.2984E+02
     -7.552  0.2951E+01  0.2987E+02
     -7.539  0.5883E+01  0.2995E+02
     -7.527  0.5540E+01  0.3002E+02
     -7.514  0.3715E+01  0.3006E+02
     -7.502  0.2336E+01  0.3009E+02
     -7.489  0.5331E+01  0.3016E+02
     -7.477  0.7200E+01  0.3025E+02
     -7.464  0.2066E+01  0.3027E+02
     -7.452  0.1967E+01  0.3030E+02
     -7.439  0.1089E+01  0.3031E+02
     -7.427  0.1723E+01  0.3033E+02
     -7.415  0.2580E+01  0.3037E+02
     -7.402  0.4645E+01  0.3042E+02
     -7.390  0.2704E+01  0.3046E+02
     -7.377  0.2489E+00  0.3046E+02
     -7.365  0.2232E-01  0.3046E+02
     -7.352  0.7654E+00  0.3047E+02
     -7.340  0.3887E+01  0.3052E+02
     -7.327  0.3679E+01  0.3056E+02
     -7.315  0.5061E+01  0.3063E+02
     -7.302  0.6869E+01  0.3071E+02
     -7.290  0.6998E+01  0.3080E+02
     -7.277  0.5552E+01  0.3087E+02
     -7.265  0.4849E+01  0.3093E+02
     -7.252  0.5927E+01  0.3100E+02
     -7.240  0.2805E+01  0.3104E+02
     -7.227  0.2194E+01  0.3107E+02
     -7.215  0.1580E+01  0.3109E+02
     -7.202  0.9189E+00  0.3110E+02
     -7.190  0.4500E+01  0.3115E+02
     -7.178  0.7321E+01  0.3125E+02
     -7.165  0.1678E+01  0.3127E+02
     -7.153  0.5270E-01  0.3127E+02
     -7.140  0.6296E+00  0.3128E+02
     -7.128  0.2942E+01  0.3131E+02
     -7.115  0.4971E+01  0.3137E+02
     -7.103  0.5288E+01  0.3144E+02
     -7.090  0.6220E+01  0.3152E+02
     -7.078  0.7045E+01  0.3161E+02
     -7.065  0.4490E+01  0.3166E+02
     -7.053  0.3757E+01  0.3171E+02
     -7.040  0.2984E+01  0.3175E+02
     -7.028  0.2546E+01  0.3178E+02
     -7.015  0.5620E+01  0.3185E+02
     -7.003  0.4585E+01  0.3190E+02
     -6.990  0.3474E+01  0.3195E+02
     -6.978  0.2939E+01  0.3198E+02
     -6.965  0.3097E+01  0.3202E+02
     -6.953  0.2270E+01  0.3205E+02
     -6.941  0.6141E+01  0.3213E+02
     -6.928  0.4456E+01  0.3218E+02
     -6.916  0.1705E+01  0.3220E+02
     -6.903  0.4820E+01  0.3227E+02
     -6.891  0.6589E+01  0.3235E+02
     -6.878  0.6100E+01  0.3242E+02
     -6.866  0.5689E+01  0.3249E+02
     -6.853  0.5949E+01  0.3257E+02
     -6.841  0.8694E+01  0.3268E+02
     -6.828  0.5512E+01  0.3275E+02
     -6.816  0.4568E+01  0.3280E+02
     -6.803  0.3780E+01  0.3285E+02
     -6.791  0.1698E+01  0.3287E+02
     -6.778  0.2133E+01  0.3290E+02
     -6.766  0.4878E+01  0.3296E+02
     -6.753  0.5438E+01  0.3303E+02
     -6.741  0.4268E+01  0.3308E+02
     -6.728  0.8453E+01  0.3319E+02
     -6.716  0.7856E+01  0.3328E+02
     -6.703  0.3115E+01  0.3332E+02
     -6.691  0.6232E+01  0.3340E+02
     -6.679  0.7692E+01  0.3350E+02
     -6.666  0.3614E+01  0.3354E+02
     -6.654  0.1115E+01  0.3355E+02
     -6.641  0.4026E+01  0.3360E+02
     -6.629  0.5244E+01  0.3367E+02
     -6.616  0.3799E+01  0.3372E+02
     -6.604  0.2644E+01  0.3375E+02
     -6.591  0.6759E+01  0.3383E+02
     -6.579  0.8832E+01  0.3395E+02
     -6.566  0.4727E+01  0.3400E+02
     -6.554  0.4863E+01  0.3406E+02
     -6.541  0.2662E+01  0.3410E+02
     -6.529  0.3220E+01  0.3414E+02
     -6.516  0.5265E+01  0.3420E+02
     -6.504  0.5776E+01  0.3428E+02
     -6.491  0.6161E+01  0.3435E+02
     -6.479  0.2777E+01  0.3439E+02
     -6.466  0.4379E+01  0.3444E+02
     -6.454  0.4386E+01  0.3450E+02
     -6.442  0.5380E+01  0.3456E+02
     -6.429  0.9264E+01  0.3468E+02
     -6.417  0.7606E+01  0.3477E+02
     -6.404  0.3639E+01  0.3482E+02
     -6.392  0.3855E+01  0.3487E+02
     -6.379  0.3284E+01  0.3491E+02
     -6.367  0.2869E+01  0.3494E+02
     -6.354  0.3171E+01  0.3498E+02
     -6.342  0.3376E+01  0.3503E+02
     -6.329  0.4708E+01  0.3508E+02
     -6.317  0.4999E+01  0.3515E+02
     -6.304  0.4677E+01  0.3521E+02
     -6.292  0.6447E+01  0.3529E+02
     -6.279  0.5094E+01  0.3535E+02
     -6.267  0.6574E+01  0.3543E+02
     -6.254  0.3085E+01  0.3547E+02
     -6.242  0.2461E+01  0.3550E+02
     -6.229  0.6957E+01  0.3559E+02
     -6.217  0.1044E+02  0.3572E+02
     -6.205  0.8524E+01  0.3582E+02
     -6.192  0.7661E+01  0.3592E+02
     -6.180  0.5385E+01  0.3599E+02
     -6.167  0.2104E+01  0.3601E+02
     -6.155  0.3109E+01  0.3605E+02
     -6.142  0.4605E+01  0.3611E+02
     -6.130  0.5458E+01  0.3618E+02
     -6.117  0.5436E+01  0.3625E+02
     -6.105  0.9487E+01  0.3636E+02
     -6.092  0.9809E+01  0.3649E+02
     -6.080  0.6115E+01  0.3656E+02
     -6.067  0.3455E+01  0.3661E+02
     -6.055  0.4405E+01  0.3666E+02
     -6.042  0.4922E+01  0.3672E+02
     -6.030  0.5019E+01  0.3678E+02
     -6.017  0.7501E+01  0.3688E+02
     -6.005  0.6757E+01  0.3696E+02
     -5.992  0.1200E+02  0.3711E+02
     -5.980  0.1398E+02  0.3729E+02
     -5.968  0.7277E+01  0.3738E+02
     -5.955  0.8216E+01  0.3748E+02
     -5.943  0.8252E+01  0.3758E+02
     -5.930  0.8918E+01  0.3769E+02
     -5.918  0.7743E+01  0.3779E+02
     -5.905  0.6071E+01  0.3787E+02
     -5.893  0.5654E+01  0.3794E+02
     -5.880  0.2965E+01  0.3797E+02
     -5.868  0.4701E+01  0.3803E+02
     -5.855  0.1184E+02  0.3818E+02
     -5.843  0.1180E+02  0.3833E+02
     -5.830  0.6489E+01  0.3841E+02
     -5.818  0.3435E+01  0.3845E+02
     -5.805  0.5575E+01  0.3852E+02
     -5.793  0.3900E+01  0.3857E+02
     -5.780  0.1034E+01  0.3858E+02
     -5.768  0.2173E+01  0.3861E+02
     -5.755  0.5967E+01  0.3868E+02
     -5.743  0.3850E+01  0.3873E+02
     -5.731  0.5021E+01  0.3879E+02
     -5.718  0.6672E+01  0.3888E+02
     -5.706  0.3618E+01  0.3892E+02
     -5.693  0.1706E+01  0.3894E+02
     -5.681  0.3111E+01  0.3898E+02
     -5.668  0.5610E+01  0.3905E+02
     -5.656  0.8032E+01  0.3915E+02
     -5.643  0.6476E+01  0.3923E+02
     -5.631  0.6871E+01  0.3932E+02
     -5.618  0.7519E+01  0.3941E+02
     -5.606  0.6387E+01  0.3949E+02
     -5.593  0.4880E+01  0.3955E+02
     -5.581  0.2769E+01  0.3959E+02
     -5.568  0.4571E+01  0.3964E+02
     -5.556  0.5236E+01  0.3971E+02
     -5.543  0.7251E+01  0.3980E+02
     -5.531  0.1274E+02  0.3996E+02
     -5.518  0.1243E+02  0.4011E+02
     -5.506  0.1042E+02  0.4024E+02
     -5.494  0.4019E+01  0.4029E+02
     -5.481  0.5945E+01  0.4037E+02
     -5.469  0.6202E+01  0.4045E+02
     -5.456  0.8054E+01  0.4055E+02
     -5.444  0.9687E+01  0.4067E+02
     -5.431  0.7738E+01  0.4076E+02
     -5.419  0.9079E+01  0.4088E+02
     -5.406  0.1061E+02  0.4101E+02
     -5.394  0.5810E+01  0.4108E+02
     -5.381  0.6928E+01  0.4117E+02
     -5.369  0.1475E+02  0.4135E+02
     -5.356  0.1918E+02  0.4159E+02
     -5.344  0.1752E+02  0.4181E+02
     -5.331  0.9595E+01  0.4193E+02
     -5.319  0.2146E+01  0.4196E+02
     -5.306  0.1059E+01  0.4197E+02
     -5.294  0.8381E+00  0.4198E+02
     -5.281  0.3300E+01  0.4202E+02
     -5.269  0.7478E+01  0.4211E+02
     -5.256  0.5255E+01  0.4218E+02
     -5.244  0.2100E+01  0.4221E+02
     -5.232  0.6015E+01  0.4228E+02
     -5.219  0.6473E+01  0.4236E+02
     -5.207  0.3313E+01  0.4240E+02
     -5.194  0.9499E+00  0.4242E+02
     -5.182  0.3337E+00  0.4242E+02
     -5.169  0.1998E+01  0.4244E+02
     -5.157  0.4121E+01  0.4250E+02
     -5.144  0.6924E+01  0.4258E+02
     -5.132  0.2233E+01  0.4261E+02
     -5.119  0.1008E+01  0.4262E+02
     -5.107  0.6788E+00  0.4263E+02
     -5.094  0.2601E+01  0.4266E+02
     -5.082  0.4145E+01  0.4272E+02
     -5.069  0.5070E+01  0.4278E+02
     -5.057  0.1815E+01  0.4280E+02
     -5.044  0.3992E+01  0.4285E+02
     -5.032  0.8890E+01  0.4296E+02
     -5.019  0.2726E+01  0.4300E+02
     -5.007  0.2248E+01  0.4302E+02
     -4.995  0.2743E+01  0.4306E+02
     -4.982  0.2491E+01  0.4309E+02
     -4.970  0.1397E+01  0.4311E+02
     -4.957  0.1476E+01  0.4313E+02
     -4.945  0.3416E+01  0.4317E+02
     -4.932  0.1342E+01  0.4318E+02
     -4.920  0.1624E+01  0.4320E+02
     -4.907  0.4261E+01  0.4326E+02
     -4.895  0.3327E+01  0.4330E+02
     -4.882  0.2421E+01  0.4333E+02
     -4.870  0.3362E+01  0.4337E+02
     -4.857  0.1933E+01  0.4340E+02
     -4.845  0.1825E+01  0.4342E+02
     -4.832  0.3832E+01  0.4347E+02
     -4.820  0.3189E+01  0.4351E+02
     -4.807  0.5746E+00  0.4351E+02
     -4.795  0.2178E+01  0.4354E+02
     -4.782  0.7319E+01  0.4363E+02
     -4.770  0.4171E+01  0.4368E+02
     -4.758  0.2621E+01  0.4372E+02
     -4.745  0.3183E+01  0.4376E+02
     -4.733  0.1761E+01  0.4378E+02
     -4.720  0.2295E+01  0.4381E+02
     -4.708  0.1968E+01  0.4383E+02
     -4.695  0.3110E+01  0.4387E+02
     -4.683  0.3764E+01  0.4392E+02
     -4.670  0.3122E+01  0.4396E+02
     -4.658  0.1184E+01  0.4397E+02
     -4.645  0.6767E+00  0.4398E+02
     -4.633  0.8090E+00  0.4399E+02
     -4.620  0.4170E+00  0.4399E+02
     -4.608  0.1881E+01  0.4402E+02
     -4.595  0.4810E+01  0.4408E+02
     -4.583  0.5605E+01  0.4415E+02
     -4.570  0.1423E+01  0.4417E+02
     -4.558  0.3334E+01  0.4421E+02
     -4.545  0.5125E+01  0.4427E+02
     -4.533  0.2985E+01  0.4431E+02
     -4.521  0.4591E+01  0.4437E+02
     -4.508  0.4336E+01  0.4442E+02
     -4.496  0.3518E+01  0.4446E+02
     -4.483  0.7048E+00  0.4447E+02
     -4.471  0.1575E+01  0.4449E+02
     -4.458  0.1258E+01  0.4451E+02
     -4.446  0.5890E+00  0.4452E+02
     -4.433  0.3492E+01  0.4456E+02
     -4.421  0.4631E+01  0.4462E+02
     -4.408  0.2023E+01  0.4464E+02
     -4.396  0.8037E+00  0.4465E+02
     -4.383  0.3054E+01  0.4469E+02
     -4.371  0.8183E+01  0.4479E+02
     -4.358  0.4614E+01  0.4485E+02
     -4.346  0.1664E+01  0.4487E+02
     -4.333  0.8034E+01  0.4497E+02
     -4.321  0.1028E+02  0.4510E+02
     -4.308  0.4942E+01  0.4516E+02
     -4.296  0.5197E+01  0.4523E+02
     -4.284  0.7419E+01  0.4532E+02
     -4.271  0.6837E+01  0.4540E+02
     -4.259  0.6077E+01  0.4548E+02
     -4.246  0.4943E+01  0.4554E+02
     -4.234  0.5408E+01  0.4561E+02
     -4.221  0.3626E+01  0.4565E+02
     -4.209  0.5433E+01  0.4572E+02
     -4.196  0.6832E+01  0.4581E+02
     -4.184  0.7261E+01  0.4590E+02
     -4.171  0.4757E+01  0.4596E+02
     -4.159  0.5607E+01  0.4603E+02
     -4.146  0.4485E+01  0.4608E+02
     -4.134  0.6423E+01  0.4616E+02
     -4.121  0.8026E+01  0.4626E+02
     -4.109  0.5628E+01  0.4633E+02
     -4.096  0.5563E+01  0.4640E+02
     -4.084  0.7647E+01  0.4650E+02
     -4.071  0.8205E+01  0.4660E+02
     -4.059  0.4382E+01  0.4665E+02
     -4.046  0.2186E+01  0.4668E+02
     -4.034  0.5262E+01  0.4675E+02
     -4.022  0.3701E+01  0.4679E+02
     -4.009  0.3384E+01  0.4684E+02
     -3.997  0.5089E+01  0.4690E+02
     -3.984  0.5336E+01  0.4697E+02
     -3.972  0.3294E+01  0.4701E+02
     -3.959  0.3257E+01  0.4705E+02
     -3.947  0.6700E+01  0.4713E+02
     -3.934  0.7293E+01  0.4722E+02
     -3.922  0.5312E+01  0.4729E+02
     -3.909  0.6344E+01  0.4737E+02
     -3.897  0.5402E+01  0.4743E+02
     -3.884  0.6532E+01  0.4752E+02
     -3.872  0.5510E+01  0.4758E+02
     -3.859  0.3921E+01  0.4763E+02
     -3.847  0.2723E+01  0.4767E+02
     -3.834  0.7401E+01  0.4776E+02
     -3.822  0.6939E+01  0.4785E+02
     -3.809  0.2415E+01  0.4788E+02
     -3.797  0.5280E+01  0.4794E+02
     -3.785  0.5322E+01  0.4801E+02
     -3.772  0.3167E+01  0.4805E+02
     -3.760  0.2559E+01  0.4808E+02
     -3.747  0.4850E+01  0.4814E+02
     -3.735  0.7571E+01  0.4824E+02
     -3.722  0.7187E+01  0.4832E+02
     -3.710  0.4923E+01  0.4839E+02
     -3.697  0.4587E+01  0.4844E+02
     -3.685  0.4094E+01  0.4849E+02
     -3.672  0.4191E+01  0.4855E+02
     -3.660  0.1623E+01  0.4857E+02
     -3.647  0.1984E+01  0.4859E+02
     -3.635  0.1945E+01  0.4862E+02
     -3.622  0.4348E+01  0.4867E+02
     -3.610  0.5909E+01  0.4874E+02
     -3.597  0.7121E+01  0.4883E+02
     -3.585  0.7211E+01  0.4892E+02
     -3.572  0.9419E+01  0.4904E+02
     -3.560  0.5449E+01  0.4911E+02
     -3.548  0.6176E+01  0.4919E+02
     -3.535  0.4699E+01  0.4924E+02
     -3.523  0.3009E+01  0.4928E+02
     -3.510  0.4399E+01  0.4934E+02
     -3.498  0.4752E+01  0.4940E+02
     -3.485  0.3516E+01  0.4944E+02
     -3.473  0.5749E+01  0.4951E+02
     -3.460  0.6588E+01  0.4959E+02
     -3.448  0.6030E+01  0.4967E+02
     -3.435  0.2075E+01  0.4969E+02
     -3.423  0.3073E+01  0.4973E+02
     -3.410  0.5172E+01  0.4980E+02
     -3.398  0.3574E+01  0.4984E+02
     -3.385  0.2741E+01  0.4988E+02
     -3.373  0.2133E+01  0.4990E+02
     -3.360  0.4281E+01  0.4996E+02
     -3.348  0.4169E+01  0.5001E+02
     -3.335  0.5303E+01  0.5007E+02
     -3.323  0.3967E+01  0.5012E+02
     -3.311  0.3043E+01  0.5016E+02
     -3.298  0.3146E+01  0.5020E+02
     -3.286  0.3131E+01  0.5024E+02
     -3.273  0.2097E+01  0.5027E+02
     -3.261  0.2150E+01  0.5029E+02
     -3.248  0.2415E+01  0.5032E+02
     -3.236  0.5979E+01  0.5040E+02
     -3.223  0.2715E+01  0.5043E+02
     -3.211  0.2710E+01  0.5047E+02
     -3.198  0.5351E+01  0.5053E+02
     -3.186  0.6375E+01  0.5061E+02
     -3.173  0.7858E+01  0.5071E+02
     -3.161  0.4378E+01  0.5076E+02
     -3.148  0.2149E+01  0.5079E+02
     -3.136  0.1867E+01  0.5081E+02
     -3.123  0.1716E+01  0.5084E+02
     -3.111  0.1344E+01  0.5085E+02
     -3.098  0.3000E+01  0.5089E+02
     -3.086  0.5045E+01  0.5095E+02
     -3.074  0.2267E+01  0.5098E+02
     -3.061  0.1120E+01  0.5100E+02
     -3.049  0.3432E+01  0.5104E+02
     -3.036  0.5340E+01  0.5110E+02
     -3.024  0.6236E+01  0.5118E+02
     -3.011  0.4116E+01  0.5123E+02
     -2.999  0.3079E+01  0.5127E+02
     -2.986  0.2960E+01  0.5131E+02
     -2.974  0.2594E+01  0.5134E+02
     -2.961  0.1926E+01  0.5137E+02
     -2.949  0.2501E+01  0.5140E+02
     -2.936  0.2224E+01  0.5142E+02
     -2.924  0.2944E+01  0.5146E+02
     -2.911  0.2197E+01  0.5149E+02
     -2.899  0.3848E+01  0.5154E+02
     -2.886  0.4463E+01  0.5159E+02
     -2.874  0.3460E+01  0.5164E+02
     -2.861  0.5413E+01  0.5170E+02
     -2.849  0.4936E+01  0.5176E+02
     -2.836  0.2581E+01  0.5180E+02
     -2.824  0.3279E+01  0.5184E+02
     -2.812  0.3591E+01  0.5188E+02
     -2.799  0.5340E+01  0.5195E+02
     -2.787  0.4152E+01  0.5200E+02
     -2.774  0.2304E+01  0.5203E+02
     -2.762  0.4697E+01  0.5209E+02
     -2.749  0.6375E+01  0.5217E+02
     -2.737  0.4748E+01  0.5223E+02
     -2.724  0.7332E+01  0.5232E+02
     -2.712  0.5998E+01  0.5239E+02
     -2.699  0.7966E+00  0.5240E+02
     -2.687  0.7228E-01  0.5240E+02
     -2.674  0.1134E+01  0.5242E+02
     -2.662  0.1756E+01  0.5244E+02
     -2.649  0.1008E+01  0.5245E+02
     -2.637  0.6174E+00  0.5246E+02
     -2.624  0.3902E-01  0.5246E+02
     -2.612  0.1754E-02  0.5246E+02
     -2.599  0.2028E+00  0.5246E+02
     -2.587  0.2119E+01  0.5249E+02
     -2.575  0.4476E+01  0.5255E+02
     -2.562  0.3328E+01  0.5259E+02
     -2.550  0.6213E+01  0.5266E+02
     -2.537  0.5068E+01  0.5273E+02
     -2.525  0.4302E+01  0.5278E+02
     -2.512  0.7474E+01  0.5287E+02
     -2.500  0.9172E+01  0.5299E+02
     -2.487  0.4875E+01  0.5305E+02
     -2.475  0.1312E+01  0.5307E+02
     -2.462  0.6641E+00  0.5307E+02
     -2.450  0.5193E-01  0.5308E+02
     -2.437  0.3574E+00  0.5308E+02
     -2.425  0.1826E+01  0.5310E+02
     -2.412  0.8787E+00  0.5311E+02
     -2.400  0.9288E+00  0.5313E+02
     -2.387  0.4768E+01  0.5318E+02
     -2.375  0.5865E+01  0.5326E+02
     -2.362  0.2342E+01  0.5329E+02
     -2.350  0.1650E+01  0.5331E+02
     -2.338  0.1537E+01  0.5333E+02
     -2.325  0.1838E+01  0.5335E+02
     -2.313  0.2309E+01  0.5338E+02
     -2.300  0.2761E+01  0.5341E+02
     -2.288  0.1831E+01  0.5344E+02
     -2.275  0.1572E+01  0.5346E+02
     -2.263  0.3062E+01  0.5349E+02
     -2.250  0.2483E+01  0.5352E+02
     -2.238  0.1883E+01  0.5355E+02
     -2.225  0.9366E+00  0.5356E+02
     -2.213  0.2302E+01  0.5359E+02
     -2.200  0.3854E+01  0.5364E+02
     -2.188  0.1146E+01  0.5365E+02
     -2.175  0.4052E-01  0.5365E+02
     -2.163  0.1227E-03  0.5365E+02
     -2.150  0.2359E-07  0.5365E+02
     -2.138  0.2486E-12  0.5365E+02
     -2.125  0.1685E-08  0.5365E+02
     -2.113  0.2301E-04  0.5365E+02
     -2.101  0.1647E-01  0.5365E+02
     -2.088  0.7724E+00  0.5366E+02
     -2.076  0.4583E+01  0.5372E+02
     -2.063  0.9607E+01  0.5384E+02
     -2.051  0.7582E+01  0.5393E+02
     -2.038  0.3690E+01  0.5398E+02
     -2.026  0.3740E+01  0.5403E+02
     -2.013  0.3098E+01  0.5406E+02
     -2.001  0.7600E+00  0.5407E+02
     -1.988  0.5882E+00  0.5408E+02
     -1.976  0.2663E+01  0.5411E+02
     -1.963  0.3577E+01  0.5416E+02
     -1.951  0.4390E+01  0.5421E+02
     -1.938  0.2539E+01  0.5425E+02
     -1.926  0.1629E+01  0.5427E+02
     -1.913  0.4108E+01  0.5432E+02
     -1.901  0.3025E+01  0.5435E+02
     -1.888  0.3149E+01  0.5439E+02
     -1.876  0.3522E+01  0.5444E+02
     -1.864  0.5383E+01  0.5450E+02
     -1.851  0.2910E+01  0.5454E+02
     -1.839  0.9233E+00  0.5455E+02
     -1.826  0.1027E+00  0.5455E+02
     -1.814  0.1088E+01  0.5457E+02
     -1.801  0.5590E+01  0.5464E+02
     -1.789  0.3805E+01  0.5468E+02
     -1.776  0.2601E+01  0.5472E+02
     -1.764  0.2393E+01  0.5475E+02
     -1.751  0.1894E+01  0.5477E+02
     -1.739  0.3228E+01  0.5481E+02
     -1.726  0.3589E+01  0.5486E+02
     -1.714  0.4765E+01  0.5491E+02
     -1.701  0.1982E+01  0.5494E+02
     -1.689  0.2297E+01  0.5497E+02
     -1.676  0.1986E+01  0.5499E+02
     -1.664  0.1650E+00  0.5500E+02
     -1.651  0.9835E-03  0.5500E+02
     -1.639  0.9230E-02  0.5500E+02
     -1.627  0.5680E+00  0.5500E+02
     -1.614  0.2948E+01  0.5504E+02
     -1.602  0.2231E+01  0.5507E+02
     -1.589  0.1151E+01  0.5508E+02
     -1.577  0.1916E+01  0.5511E+02
     -1.564  0.1104E+01  0.5512E+02
     -1.552  0.1952E+01  0.5514E+02
     -1.539  0.1628E+01  0.5516E+02
     -1.527  0.1687E+01  0.5518E+02
     -1.514  0.7051E+00  0.5519E+02
     -1.502  0.2434E+01  0.5522E+02
     -1.489  0.3204E+01  0.5526E+02
     -1.477  0.2340E+01  0.5529E+02
     -1.464  0.1438E+01  0.5531E+02
     -1.452  0.7782E+00  0.5532E+02
     -1.439  0.7596E-01  0.5532E+02
     -1.427  0.3087E+00  0.5533E+02
     -1.414  0.2654E+01  0.5536E+02
     -1.402  0.3129E+01  0.5540E+02
     -1.389  0.1915E+01  0.5542E+02
     -1.377  0.1848E+01  0.5544E+02
     -1.365  0.2956E+01  0.5548E+02
     -1.352  0.1012E+01  0.5549E+02
     -1.340  0.2813E-01  0.5549E+02
     -1.327  0.7307E-03  0.5549E+02
     -1.315  0.1228E+00  0.5550E+02
     -1.302  0.1433E+01  0.5551E+02
     -1.290  0.1406E+01  0.5553E+02
     -1.277  0.1193E+00  0.5553E+02
     -1.265  0.3766E+00  0.5554E+02
     -1.252  0.3078E+01  0.5558E+02
     -1.240  0.2995E+01  0.5561E+02
     -1.227  0.2104E+01  0.5564E+02
     -1.215  0.6608E+00  0.5565E+02
     -1.202  0.1766E-01  0.5565E+02
     -1.190  0.2853E-04  0.5565E+02
     -1.177  0.3981E-03  0.5565E+02
     -1.165  0.9004E-01  0.5565E+02
     -1.152  0.1294E+01  0.5567E+02
     -1.140  0.1551E+01  0.5568E+02
     -1.128  0.5664E+00  0.5569E+02
     -1.115  0.1209E+01  0.5571E+02
     -1.103  0.1894E+01  0.5573E+02
     -1.090  0.2199E+01  0.5576E+02
     -1.078  0.6345E+00  0.5577E+02
     -1.065  0.1673E+01  0.5579E+02
     -1.053  0.1420E+01  0.5580E+02
     -1.040  0.1654E+01  0.5582E+02
     -1.028  0.1118E+01  0.5584E+02
     -1.015  0.1287E+00  0.5584E+02
     -1.003  0.6200E+00  0.5585E+02
     -0.990  0.9076E+00  0.5586E+02
     -0.978  0.9334E+00  0.5587E+02
     -0.965  0.5485E+00  0.5588E+02
     -0.953  0.3859E-01  0.5588E+02
     -0.940  0.3403E+00  0.5588E+02
     -0.928  0.9585E+00  0.5589E+02
     -0.915  0.5837E+00  0.5590E+02
     -0.903  0.9511E+00  0.5591E+02
     -0.891  0.2399E+00  0.5592E+02
     -0.878  0.1757E+00  0.5592E+02
     -0.866  0.2883E+00  0.5592E+02
     -0.853  0.4418E-01  0.5592E+02
     -0.841  0.2915E-01  0.5592E+02
     -0.828  0.8272E+00  0.5593E+02
     -0.816  0.1853E+01  0.5596E+02
     -0.803  0.3644E+00  0.5596E+02
     -0.791  0.5072E-02  0.5596E+02
     -0.778  0.3963E-05  0.5596E+02
     -0.766  0.2238E-06  0.5596E+02
     -0.753  0.5874E-03  0.5596E+02
     -0.741  0.8344E-01  0.5596E+02
     -0.728  0.7845E+00  0.5597E+02
     -0.716  0.6289E+00  0.5598E+02
     -0.703  0.4149E-01  0.5598E+02
     -0.691  0.1729E-03  0.5598E+02
     -0.678  0.3806E-07  0.5598E+02
     -0.666  0.4089E-12  0.5598E+02
     -0.654  0.0000E+00  0.5598E+02
     -0.641  0.0000E+00  0.5598E+02
     -0.629  0.0000E+00  0.5598E+02
     -0.616  0.0000E+00  0.5598E+02
     -0.604  0.0000E+00  0.5598E+02
     -0.591  0.0000E+00  0.5598E+02
     -0.579  0.0000E+00  0.5598E+02
     -0.566  0.4241E-13  0.5598E+02
     -0.554  0.6641E-08  0.5598E+02
     -0.541  0.5039E-04  0.5598E+02
     -0.529  0.1984E-01  0.5598E+02
     -0.516  0.4741E+00  0.5599E+02
     -0.504  0.8958E+00  0.5600E+02
     -0.491  0.1477E+00  0.5600E+02
     -0.479  0.1690E-02  0.5600E+02
     -0.466  0.1073E-05  0.5600E+02
     -0.454  0.3399E-10  0.5600E+02
     -0.441  0.0000E+00  0.5600E+02
     -0.429  0.0000E+00  0.5600E+02
     -0.417  0.0000E+00  0.5600E+02
     -0.404  0.0000E+00  0.5600E+02
     -0.392  0.0000E+00  0.5600E+02
     -0.379  0.0000E+00  0.5600E+02
     -0.367  0.0000E+00  0.5600E+02
     -0.354  0.0000E+00  0.5600E+02
     -0.342  0.0000E+00  0.5600E+02
     -0.329  0.0000E+00  0.5600E+02
     -0.317  0.0000E+00  0.5600E+02
     -0.304  0.0000E+00  0.5600E+02
     -0.292  0.0000E+00  0.5600E+02
     -0.279  0.0000E+00  0.5600E+02
     -0.267  0.0000E+00  0.5600E+02
     -0.254  0.0000E+00  0.5600E+02
     -0.242  0.0000E+00  0.5600E+02
     -0.229  0.0000E+00  0.5600E+02
     -0.217  0.0000E+00  0.5600E+02
     -0.204  0.0000E+00  0.5600E+02
     -0.192  0.2563E-15  0.5600E+02
     -0.179  0.1198E-09  0.5600E+02
     -0.167  0.2731E-05  0.5600E+02
     -0.155  0.3129E-02  0.5600E+02
     -0.142  0.2026E+00  0.5600E+02
     -0.130  0.9386E+00  0.5601E+02
     -0.117  0.3828E+00  0.5602E+02
     -0.105  0.1200E-01  0.5602E+02
     -0.092  0.2235E-04  0.5602E+02
     -0.080  0.2137E-08  0.5602E+02
     -0.067  0.9797E-14  0.5602E+02
     -0.055  0.0000E+00  0.5602E+02
     -0.042  0.0000E+00  0.5602E+02
     -0.030  0.0000E+00  0.5602E+02
     -0.017  0.0000E+00  0.5602E+02
     -0.005  0.0000E+00  0.5602E+02
      0.008  0.0000E+00  0.5602E+02
      0.020  0.8544E-16  0.5602E+02
      0.033  0.4054E-10  0.5602E+02
      0.045  0.1223E-05  0.5602E+02
      0.058  0.1843E-02  0.5602E+02
      0.070  0.1545E+00  0.5602E+02
      0.082  0.9031E+00  0.5603E+02
      0.095  0.4612E+00  0.5604E+02
      0.107  0.1854E-01  0.5604E+02
      0.120  0.4512E-04  0.5604E+02
      0.132  0.4054E-05  0.5604E+02
      0.145  0.5136E-02  0.5604E+02
      0.157  0.3664E+00  0.5604E+02
      0.170  0.1854E+01  0.5607E+02
      0.182  0.8244E+00  0.5608E+02
      0.195  0.2848E-01  0.5608E+02
      0.207  0.5889E-04  0.5608E+02
      0.220  0.6287E-08  0.5608E+02
      0.232  0.3247E-13  0.5608E+02
      0.245  0.0000E+00  0.5608E+02
      0.257  0.0000E+00  0.5608E+02
      0.270  0.0000E+00  0.5608E+02
      0.282  0.0000E+00  0.5608E+02
      0.295  0.0000E+00  0.5608E+02
      0.307  0.3323E-12  0.5608E+02
      0.319  0.3224E-07  0.5608E+02
      0.332  0.1532E-03  0.5608E+02
      0.344  0.3852E-01  0.5608E+02
      0.357  0.6116E+00  0.5608E+02
      0.369  0.7987E+00  0.5609E+02
      0.382  0.9013E-01  0.5610E+02
      0.394  0.1158E+00  0.5610E+02
      0.407  0.1404E+01  0.5611E+02
      0.419  0.1435E+01  0.5613E+02
      0.432  0.1233E+00  0.5613E+02
      0.444  0.8373E-03  0.5613E+02
      0.457  0.5030E-01  0.5614E+02
      0.469  0.1041E+01  0.5615E+02
      0.482  0.1733E+01  0.5617E+02
      0.494  0.2510E+00  0.5617E+02
      0.507  0.2499E-02  0.5617E+02
      0.519  0.1377E-05  0.5617E+02
      0.532  0.3796E-10  0.5617E+02
      0.544  0.5751E-08  0.5617E+02
      0.556  0.5474E-04  0.5617E+02
      0.569  0.2704E-01  0.5617E+02
      0.581  0.8036E+00  0.5618E+02
      0.594  0.1861E+01  0.5621E+02
      0.606  0.3812E+00  0.5621E+02
      0.619  0.5605E-02  0.5621E+02
      0.631  0.4692E-05  0.5621E+02
      0.644  0.1995E-09  0.5621E+02
      0.656  0.3418E-15  0.5621E+02
      0.669  0.0000E+00  0.5621E+02
      0.681  0.7230E-11  0.5621E+02
      0.694  0.3520E-06  0.5621E+02
      0.706  0.8965E-03  0.5621E+02
      0.719  0.1350E+00  0.5621E+02
      0.731  0.1651E+01  0.5623E+02
      0.744  0.3786E+01  0.5628E+02
      0.756  0.3067E+01  0.5632E+02
      0.769  0.2126E+01  0.5635E+02
      0.781  0.2693E+01  0.5638E+02
      0.793  0.1038E+01  0.5639E+02
      0.806  0.1826E+01  0.5641E+02
      0.818  0.4510E+01  0.5647E+02
      0.831  0.5498E+01  0.5654E+02
      0.843  0.2453E+01  0.5657E+02
      0.856  0.2158E+01  0.5660E+02
      0.868  0.2084E+01  0.5662E+02
      0.881  0.2376E+01  0.5665E+02
      0.893  0.2912E+01  0.5669E+02
      0.906  0.3638E+01  0.5673E+02
      0.918  0.1212E+01  0.5675E+02
      0.931  0.1759E+01  0.5677E+02
      0.943  0.2484E+01  0.5680E+02
      0.956  0.1296E+01  0.5682E+02
      0.968  0.3245E+01  0.5686E+02
      0.981  0.4287E+01  0.5691E+02
      0.993  0.9807E+01  0.5704E+02
      1.006  0.9196E+01  0.5715E+02
      1.018  0.4496E+01  0.5721E+02
      1.031  0.4121E+01  0.5726E+02
      1.043  0.4577E+01  0.5731E+02
      1.055  0.9478E+01  0.5743E+02
      1.068  0.1244E+02  0.5759E+02
      1.080  0.8316E+01  0.5769E+02
      1.093  0.3957E+01  0.5774E+02
      1.105  0.2569E+01  0.5777E+02
      1.118  0.1934E+01  0.5780E+02
      1.130  0.2414E+01  0.5783E+02
      1.143  0.1590E+01  0.5785E+02
      1.155  0.7934E+00  0.5786E+02
      1.168  0.1601E+01  0.5788E+02
      1.180  0.1016E+01  0.5789E+02
      1.193  0.1840E+01  0.5791E+02
      1.205  0.3018E+01  0.5795E+02
      1.218  0.1926E+01  0.5797E+02
      1.230  0.2195E+01  0.5800E+02
      1.243  0.3937E+01  0.5805E+02
      1.255  0.3473E+01  0.5809E+02
      1.268  0.9665E+00  0.5811E+02
      1.280  0.1576E+01  0.5813E+02
      1.292  0.8569E+00  0.5814E+02
      1.305  0.1718E+00  0.5814E+02
      1.317  0.7677E+00  0.5815E+02
      1.330  0.1253E+01  0.5816E+02
      1.342  0.1519E+01  0.5818E+02
      1.355  0.2004E+01  0.5821E+02
      1.367  0.1926E+01  0.5823E+02
      1.380  0.4737E+00  0.5824E+02
      1.392  0.8073E+00  0.5825E+02
      1.405  0.2326E+01  0.5828E+02
      1.417  0.1520E+01  0.5830E+02
      1.430  0.2857E+01  0.5833E+02
      1.442  0.9207E+01  0.5845E+02
      1.455  0.1104E+02  0.5858E+02
      1.467  0.7912E+01  0.5868E+02
      1.480  0.2585E+01  0.5871E+02
      1.492  0.1664E+00  0.5872E+02
      1.505  0.8513E-01  0.5872E+02
      1.517  0.1503E+01  0.5874E+02
      1.529  0.3442E+01  0.5878E+02
      1.542  0.1096E+01  0.5879E+02
      1.554  0.3915E+00  0.5880E+02
      1.567  0.2141E+01  0.5882E+02
      1.579  0.3134E+01  0.5886E+02
      1.592  0.4953E+01  0.5893E+02
      1.604  0.8625E+01  0.5903E+02
      1.617  0.6554E+01  0.5912E+02
      1.629  0.6000E+01  0.5919E+02
      1.642  0.3513E+01  0.5923E+02
      1.654  0.1707E+01  0.5926E+02
      1.667  0.1579E+01  0.5927E+02
      1.679  0.3193E+01  0.5931E+02
      1.692  0.2789E+01  0.5935E+02
      1.704  0.3122E+01  0.5939E+02
      1.717  0.1934E+01  0.5941E+02
      1.729  0.5154E+00  0.5942E+02
      1.742  0.1712E+01  0.5944E+02
      1.754  0.3811E+01  0.5949E+02
      1.766  0.2769E+01  0.5952E+02
      1.779  0.9529E+00  0.5953E+02
      1.791  0.2160E+01  0.5956E+02
      1.804  0.3771E+01  0.5961E+02
      1.816  0.2895E+01  0.5964E+02
      1.829  0.3881E+01  0.5969E+02
      1.841  0.3840E+01  0.5974E+02
      1.854  0.2377E+01  0.5977E+02
      1.866  0.2491E+01  0.5980E+02
      1.879  0.1628E+01  0.5982E+02
      1.891  0.1179E+01  0.5984E+02
      1.904  0.2400E+01  0.5987E+02
      1.916  0.4651E+01  0.5992E+02
      1.929  0.4019E+01  0.5997E+02
      1.941  0.3899E+01  0.6002E+02
      1.954  0.2423E+01  0.6005E+02
      1.966  0.2897E+01  0.6009E+02
      1.979  0.1259E+01  0.6011E+02
      1.991  0.1709E+01  0.6013E+02
      2.003  0.2567E+01  0.6016E+02
      2.016  0.1177E+01  0.6017E+02
      2.028  0.1039E+01  0.6019E+02
      2.041  0.1929E+01  0.6021E+02
      2.053  0.2322E+01  0.6024E+02
      2.066  0.3378E+01  0.6028E+02
      2.078  0.1552E+01  0.6030E+02
      2.091  0.1167E+01  0.6032E+02
      2.103  0.1371E+01  0.6033E+02
      2.116  0.3854E+01  0.6038E+02
      2.128  0.2413E+01  0.6041E+02
      2.141  0.7894E+00  0.6042E+02
      2.153  0.1874E+01  0.6044E+02
      2.166  0.1426E+01  0.6046E+02
      2.178  0.2016E+01  0.6049E+02
      2.191  0.1953E+01  0.6051E+02
      2.203  0.2457E+01  0.6054E+02
      2.216  0.3745E+01  0.6059E+02
      2.228  0.3326E+01  0.6063E+02
      2.241  0.3658E+01  0.6068E+02
      2.253  0.4112E+01  0.6073E+02
      2.265  0.4571E+01  0.6078E+02
      2.278  0.3031E+01  0.6082E+02
      2.290  0.2165E+01  0.6085E+02
      2.303  0.1987E+01  0.6087E+02
      2.315  0.1612E+01  0.6089E+02
      2.328  0.2032E+00  0.6090E+02
      2.340  0.5080E-02  0.6090E+02
      2.353  0.2020E+00  0.6090E+02
      2.365  0.1047E+01  0.6091E+02
      2.378  0.1317E+01  0.6093E+02
      2.390  0.2526E+01  0.6096E+02
      2.403  0.4740E+01  0.6102E+02
      2.415  0.2252E+01  0.6105E+02
      2.428  0.2568E+00  0.6105E+02
      2.440  0.9497E+00  0.6106E+02
      2.453  0.2661E+01  0.6110E+02
      2.465  0.1162E+01  0.6111E+02
      2.478  0.2105E+01  0.6114E+02
      2.490  0.4385E+01  0.6119E+02
      2.502  0.4918E+01  0.6125E+02
      2.515  0.4072E+01  0.6130E+02
      2.527  0.1502E+01  0.6132E+02
      2.540  0.1161E+01  0.6134E+02
      2.552  0.1207E+01  0.6135E+02
      2.565  0.8279E+00  0.6136E+02
      2.577  0.1174E+01  0.6138E+02
      2.590  0.1176E+01  0.6139E+02
      2.602  0.8347E+00  0.6140E+02
      2.615  0.1792E+01  0.6142E+02
      2.627  0.2472E+01  0.6145E+02
      2.640  0.2540E+01  0.6149E+02
      2.652  0.1499E+01  0.6150E+02
      2.665  0.1699E+01  0.6153E+02
      2.677  0.4651E+01  0.6158E+02
      2.690  0.4758E+01  0.6164E+02
      2.702  0.2679E+01  0.6168E+02
      2.715  0.1438E+01  0.6169E+02
      2.727  0.3258E+01  0.6174E+02
      2.739  0.2788E+01  0.6177E+02
      2.752  0.7221E+00  0.6178E+02
      2.764  0.2693E-01  0.6178E+02
      2.777  0.5378E-03  0.6178E+02
      2.789  0.9644E-01  0.6178E+02
      2.802  0.1314E+01  0.6180E+02
      2.814  0.1535E+01  0.6182E+02
      2.827  0.8455E+00  0.6183E+02
      2.839  0.1998E+01  0.6185E+02
      2.852  0.1280E+01  0.6187E+02
      2.864  0.8501E+00  0.6188E+02
      2.877  0.1038E+01  0.6189E+02
      2.889  0.1678E+01  0.6191E+02
      2.902  0.4929E+01  0.6197E+02
      2.914  0.4364E+01  0.6203E+02
      2.927  0.5659E+01  0.6210E+02
      2.939  0.4521E+01  0.6215E+02
      2.952  0.3267E+01  0.6220E+02
      2.964  0.7386E+00  0.6220E+02
      2.976  0.5384E+00  0.6221E+02
      2.989  0.1919E+01  0.6224E+02
      3.001  0.9979E+00  0.6225E+02
      3.014  0.2955E+01  0.6228E+02
      3.026  0.4776E+01  0.6234E+02
      3.039  0.3983E+01  0.6239E+02
      3.051  0.1913E+01  0.6242E+02
      3.064  0.1093E+01  0.6243E+02
      3.076  0.4604E+00  0.6244E+02
      3.089  0.1394E+01  0.6245E+02
      3.101  0.2524E+01  0.6249E+02
      3.114  0.2013E+01  0.6251E+02
      3.126  0.2898E+01  0.6255E+02
      3.139  0.4826E+01  0.6261E+02
      3.151  0.5019E+01  0.6267E+02
      3.164  0.6123E+01  0.6275E+02
      3.176  0.4923E+01  0.6281E+02
      3.189  0.3209E+01  0.6285E+02
      3.201  0.9779E+00  0.6286E+02
      3.213  0.1700E+01  0.6288E+02
      3.226  0.2776E+01  0.6292E+02
      3.238  0.2553E+01  0.6295E+02
      3.251  0.2899E+01  0.6298E+02
      3.263  0.6381E+00  0.6299E+02
      3.276  0.4642E+00  0.6300E+02
      3.288  0.2433E+01  0.6303E+02
      3.301  0.3012E+01  0.6307E+02
      3.313  0.3392E+01  0.6311E+02
      3.326  0.1450E+01  0.6313E+02
      3.338  0.9270E+00  0.6314E+02
      3.351  0.2728E+01  0.6317E+02
      3.363  0.3698E+01  0.6322E+02
      3.376  0.2755E+01  0.6325E+02
      3.388  0.2137E+01  0.6328E+02
      3.401  0.2392E+01  0.6331E+02
      3.413  0.3202E+01  0.6335E+02
      3.426  0.7732E+00  0.6336E+02
      3.438  0.2739E+01  0.6339E+02
      3.450  0.7217E+01  0.6348E+02
      3.463  0.4370E+01  0.6354E+02
      3.475  0.2080E+01  0.6356E+02
      3.488  0.3011E+01  0.6360E+02
      3.500  0.3777E+01  0.6365E+02
      3.513  0.4050E+01  0.6370E+02
      3.525  0.4465E+01  0.6375E+02
      3.538  0.3960E+01  0.6380E+02
      3.550  0.5148E+01  0.6387E+02
      3.563  0.4082E+01  0.6392E+02
      3.575  0.1525E+01  0.6394E+02
      3.588  0.2487E+01  0.6397E+02
      3.600  0.2979E+01  0.6401E+02
      3.613  0.2503E+01  0.6404E+02
      3.625  0.3998E+01  0.6409E+02
      3.638  0.4365E+01  0.6414E+02
      3.650  0.4274E+01  0.6419E+02
      3.663  0.4976E+01  0.6426E+02
      3.675  0.4905E+01  0.6432E+02
      3.688  0.2555E+01  0.6435E+02
      3.700  0.3496E+01  0.6439E+02
      3.712  0.7699E+01  0.6449E+02
      3.725  0.7436E+01  0.6458E+02
      3.737  0.6617E+01  0.6466E+02
      3.750  0.5161E+01  0.6473E+02
      3.762  0.8081E+01  0.6483E+02
      3.775  0.5198E+01  0.6489E+02
      3.787  0.1741E+01  0.6492E+02
      3.800  0.5968E+01  0.6499E+02
      3.812  0.7947E+01  0.6509E+02
      3.825  0.7283E+01  0.6518E+02
      3.837  0.8017E+01  0.6528E+02
      3.850  0.7602E+01  0.6538E+02
      3.862  0.5965E+01  0.6545E+02
      3.875  0.5985E+01  0.6552E+02
      3.887  0.7271E+01  0.6562E+02
      3.900  0.1083E+02  0.6575E+02
      3.912  0.8733E+01  0.6586E+02
      3.925  0.4664E+01  0.6592E+02
      3.937  0.7557E+01  0.6601E+02
      3.949  0.1118E+02  0.6615E+02
      3.962  0.8006E+01  0.6625E+02
      3.974  0.6936E+01  0.6634E+02
      3.987  0.6180E+01  0.6641E+02
      3.999  0.7084E+01  0.6650E+02
      4.012  0.4581E+01  0.6656E+02
      4.024  0.1605E+01  0.6658E+02
      4.037  0.3269E+01  0.6662E+02
      4.049  0.6746E+01  0.6671E+02
      4.062  0.8221E+01  0.6681E+02
      4.074  0.5136E+01  0.6687E+02
      4.087  0.5924E+01  0.6695E+02
      4.099  0.6523E+01  0.6703E+02
      4.112  0.6066E+01  0.6710E+02
      4.124  0.5344E+01  0.6717E+02
      4.137  0.4382E+01  0.6722E+02
      4.149  0.6273E+01  0.6730E+02
      4.162  0.7132E+01  0.6739E+02
      4.174  0.6308E+01  0.6747E+02
      4.186  0.2996E+01  0.6751E+02
      4.199  0.6440E+01  0.6759E+02
      4.211  0.9842E+01  0.6771E+02
      4.224  0.1058E+02  0.6784E+02
      4.236  0.6703E+01  0.6793E+02
      4.249  0.3473E+01  0.6797E+02
      4.261  0.4958E+01  0.6803E+02
      4.274  0.5291E+01  0.6810E+02
      4.286  0.5880E+01  0.6817E+02
      4.299  0.6015E+01  0.6825E+02
      4.311  0.5658E+01  0.6832E+02
      4.324  0.5254E+01  0.6838E+02
      4.336  0.3052E+01  0.6842E+02
      4.349  0.7879E+01  0.6852E+02
      4.361  0.6369E+01  0.6860E+02
      4.374  0.4929E+01  0.6866E+02
      4.386  0.7512E+01  0.6875E+02
      4.399  0.7391E+01  0.6884E+02
      4.411  0.8516E+01  0.6895E+02
      4.423  0.1050E+02  0.6908E+02
      4.436  0.8312E+01  0.6919E+02
      4.448  0.2262E+01  0.6921E+02
      4.461  0.4840E+01  0.6927E+02
      4.473  0.3649E+01  0.6932E+02
      4.486  0.1364E+01  0.6934E+02
      4.498  0.1260E+01  0.6935E+02
      4.511  0.2082E+01  0.6938E+02
      4.523  0.5725E+01  0.6945E+02
      4.536  0.9106E+01  0.6956E+02
      4.548  0.7726E+01  0.6966E+02
      4.561  0.7547E+01  0.6975E+02
      4.573  0.8979E+01  0.6987E+02
      4.586  0.9207E+01  0.6998E+02
      4.598  0.7557E+01  0.7008E+02
      4.611  0.5285E+01  0.7014E+02
      4.623  0.5977E+01  0.7022E+02
      4.636  0.4287E+01  0.7027E+02
      4.648  0.4037E+01  0.7032E+02
      4.660  0.6836E+01  0.7040E+02
      4.673  0.8236E+01  0.7051E+02
      4.685  0.4830E+01  0.7057E+02
      4.698  0.3754E+01  0.7061E+02
      4.710  0.4545E+01  0.7067E+02
      4.723  0.3046E+01  0.7071E+02
      4.735  0.5234E+01  0.7077E+02
      4.748  0.5666E+01  0.7085E+02
      4.760  0.2229E+01  0.7087E+02
      4.773  0.4688E+01  0.7093E+02
      4.785  0.1085E+02  0.7107E+02
      4.798  0.8396E+01  0.7117E+02
      4.810  0.4472E+01  0.7123E+02
      4.823  0.7198E+01  0.7132E+02
      4.835  0.9618E+01  0.7144E+02
      4.848  0.7380E+01  0.7153E+02
      4.860  0.6288E+01  0.7161E+02
      4.873  0.6402E+01  0.7169E+02
      4.885  0.9219E+01  0.7180E+02
      4.898  0.4391E+01  0.7186E+02
      4.910  0.3053E+01  0.7190E+02
      4.922  0.5294E+01  0.7196E+02
      4.935  0.1171E+02  0.7211E+02
      4.947  0.6792E+01  0.7219E+02
      4.960  0.4161E+01  0.7224E+02
      4.972  0.5063E+01  0.7231E+02
      4.985  0.4609E+01  0.7236E+02
      4.997  0.5943E+01  0.7244E+02
      5.010  0.7802E+01  0.7254E+02
      5.022  0.6107E+01  0.7261E+02
      5.035  0.5321E+01  0.7268E+02
      5.047  0.3765E+01  0.7273E+02
      5.060  0.5400E+01  0.7279E+02
      5.072  0.9471E+01  0.7291E+02
      5.085  0.8996E+01  0.7302E+02
      5.097  0.6508E+01  0.7310E+02
      5.110  0.6396E+01  0.7318E+02
      5.122  0.8175E+01  0.7329E+02
      5.135  0.6003E+01  0.7336E+02
      5.147  0.7060E+01  0.7345E+02
      5.159  0.8995E+01  0.7356E+02
      5.172  0.5511E+01  0.7363E+02
      5.184  0.5342E+01  0.7370E+02
      5.197  0.8933E+01  0.7381E+02
      5.209  0.9330E+01  0.7392E+02
      5.222  0.8159E+01  0.7403E+02
      5.234  0.7699E+01  0.7412E+02
      5.247  0.9646E+01  0.7424E+02
      5.259  0.7200E+01  0.7433E+02
      5.272  0.4205E+01  0.7439E+02
      5.284  0.1786E+01  0.7441E+02
      5.297  0.3262E+01  0.7445E+02
      5.309  0.2457E+01  0.7448E+02
      5.322  0.4883E+01  0.7454E+02
      5.334  0.5817E+01  0.7461E+02
      5.347  0.7093E+01  0.7470E+02
      5.359  0.7676E+01  0.7480E+02
      5.372  0.3762E+01  0.7484E+02
      5.384  0.2197E+01  0.7487E+02
      5.396  0.2042E+01  0.7490E+02
      5.409  0.4679E+01  0.7495E+02
      5.421  0.6663E+01  0.7504E+02
      5.434  0.3547E+01  0.7508E+02
      5.446  0.2245E+01  0.7511E+02
      5.459  0.2028E+01  0.7514E+02
      5.471  0.5669E+01  0.7521E+02
      5.484  0.9266E+01  0.7532E+02
      5.496  0.5028E+01  0.7538E+02
      5.509  0.5409E+01  0.7545E+02
      5.521  0.5840E+01  0.7552E+02
      5.534  0.3274E+01  0.7557E+02
      5.546  0.3128E+01  0.7560E+02
      5.559  0.6283E+01  0.7568E+02
      5.571  0.8664E+01  0.7579E+02
      5.584  0.9251E+01  0.7591E+02
      5.596  0.1073E+02  0.7604E+02
      5.609  0.1109E+02  0.7618E+02
      5.621  0.6959E+01  0.7627E+02
      5.633  0.6945E+01  0.7635E+02
      5.646  0.1132E+02  0.7649E+02
      5.658  0.7879E+01  0.7659E+02
      5.671  0.9580E+01  0.7671E+02
      5.683  0.5289E+01  0.7678E+02
      5.696  0.2986E+01  0.7681E+02
      5.708  0.4654E+01  0.7687E+02
      5.721  0.7307E+01  0.7696E+02
      5.733  0.5628E+01  0.7703E+02
      5.746  0.5283E+01  0.7710E+02
      5.758  0.6773E+01  0.7718E+02
      5.771  0.5875E+01  0.7726E+02
      5.783  0.4924E+01  0.7732E+02
      5.796  0.2263E+01  0.7735E+02
      5.808  0.1640E+01  0.7737E+02
      5.821  0.2178E+01  0.7739E+02
      5.833  0.2026E+01  0.7742E+02
      5.846  0.1816E+01  0.7744E+02
      5.858  0.6868E+01  0.7753E+02
      5.870  0.1205E+02  0.7768E+02
      5.883  0.1259E+02  0.7784E+02
      5.895  0.8505E+01  0.7794E+02
      5.908  0.4329E+01  0.7800E+02
      5.920  0.4144E+01  0.7805E+02
      5.933  0.3156E+01  0.7809E+02
      5.945  0.3573E+01  0.7813E+02
      5.958  0.4423E+01  0.7819E+02
      5.970  0.5725E+01  0.7826E+02
      5.983  0.5453E+01  0.7833E+02
      5.995  0.3403E+01  0.7837E+02
      6.008  0.2739E+01  0.7840E+02
      6.020  0.4637E+01  0.7846E+02
      6.033  0.6475E+01  0.7854E+02
      6.045  0.5498E+01  0.7861E+02
      6.058  0.4656E+01  0.7867E+02
      6.070  0.6441E+01  0.7875E+02
      6.083  0.7384E+01  0.7884E+02
      6.095  0.6986E+01  0.7893E+02
      6.108  0.4031E+01  0.7898E+02
      6.120  0.4616E+01  0.7904E+02
      6.132  0.4290E+01  0.7909E+02
      6.145  0.6331E+01  0.7917E+02
      6.157  0.5903E+01  0.7924E+02
      6.170  0.5958E+01  0.7932E+02
      6.182  0.4669E+01  0.7937E+02
      6.195  0.3659E+01  0.7942E+02
      6.207  0.4934E+01  0.7948E+02
      6.220  0.5006E+01  0.7954E+02
      6.232  0.3924E+01  0.7959E+02
      6.245  0.4616E+01  0.7965E+02
      6.257  0.5646E+01  0.7972E+02
      6.270  0.4305E+01  0.7977E+02
      6.282  0.5401E+01  0.7984E+02
      6.295  0.3106E+01  0.7988E+02
      6.307  0.4057E+01  0.7993E+02
      6.320  0.4358E+01  0.7999E+02
      6.332  0.2470E+01  0.8002E+02
      6.345  0.2298E+01  0.8004E+02
      6.357  0.2278E+01  0.8007E+02
      6.369  0.5293E+01  0.8014E+02
      6.382  0.1050E+02  0.8027E+02
      6.394  0.7777E+01  0.8037E+02
      6.407  0.1613E+01  0.8039E+02
      6.419  0.3267E+01  0.8043E+02
      6.432  0.4771E+01  0.8049E+02
      6.444  0.4968E+01  0.8055E+02
      6.457  0.6254E+01  0.8063E+02
      6.469  0.6823E+01  0.8071E+02
      6.482  0.7832E+01  0.8081E+02
      6.494  0.4871E+01  0.8087E+02
      6.507  0.7347E+01  0.8096E+02
      6.519  0.7866E+01  0.8106E+02
      6.532  0.6947E+01  0.8115E+02
      6.544  0.6754E+01  0.8123E+02
      6.557  0.7971E+01  0.8133E+02
      6.569  0.6076E+01  0.8141E+02
      6.582  0.6880E+01  0.8149E+02
      6.594  0.1066E+02  0.8163E+02
      6.606  0.1239E+02  0.8178E+02
      6.619  0.1065E+02  0.8191E+02
      6.631  0.5226E+01  0.8198E+02
      6.644  0.4460E+01  0.8203E+02
      6.656  0.2473E+01  0.8206E+02
      6.669  0.2588E+01  0.8210E+02
      6.681  0.5391E+01  0.8216E+02
      6.694  0.9099E+01  0.8228E+02
      6.706  0.6210E+01  0.8236E+02
      6.719  0.6561E+01  0.8244E+02
      6.731  0.1020E+02  0.8256E+02
      6.744  0.8036E+01  0.8266E+02
      6.756  0.4119E+01  0.8272E+02
      6.769  0.6235E+01  0.8279E+02
      6.781  0.5807E+01  0.8287E+02
      6.794  0.4692E+01  0.8292E+02
      6.806  0.8680E+01  0.8303E+02
      6.819  0.1142E+02  0.8318E+02
      6.831  0.7100E+01  0.8326E+02
      6.843  0.3774E+01  0.8331E+02
      6.856  0.7076E+01  0.8340E+02
      6.868  0.1180E+02  0.8355E+02
      6.881  0.8851E+01  0.8366E+02
      6.893  0.7550E+01  0.8375E+02
      6.906  0.9213E+01  0.8387E+02
      6.918  0.1110E+02  0.8400E+02
      6.931  0.9420E+01  0.8412E+02
      6.943  0.8827E+01  0.8423E+02
      6.956  0.6609E+01  0.8431E+02
      6.968  0.7880E+01  0.8441E+02
      6.981  0.1003E+02  0.8454E+02
      6.993  0.7968E+01  0.8464E+02
      7.006  0.5803E+01  0.8471E+02
      7.018  0.4503E+01  0.8477E+02
      7.031  0.7323E+01  0.8486E+02
      7.043  0.1767E+02  0.8508E+02
      7.056  0.1149E+02  0.8522E+02
      7.068  0.3966E+01  0.8527E+02
      7.080  0.1672E+01  0.8529E+02
      7.093  0.1660E+01  0.8531E+02
      7.105  0.4913E+01  0.8537E+02
      7.118  0.5984E+01  0.8545E+02
      7.130  0.7417E+01  0.8554E+02
      7.143  0.6562E+01  0.8562E+02
      7.155  0.4743E+01  0.8568E+02
      7.168  0.4065E+01  0.8573E+02
      7.180  0.2239E+01  0.8576E+02
      7.193  0.6138E+01  0.8584E+02
      7.205  0.7985E+01  0.8594E+02
      7.218  0.6619E+01  0.8602E+02
      7.230  0.5221E+01  0.8608E+02
      7.243  0.4653E+01  0.8614E+02
      7.255  0.3228E+01  0.8618E+02
      7.268  0.3099E+01  0.8622E+02
      7.280  0.4188E+01  0.8627E+02
      7.293  0.8166E+01  0.8638E+02
      7.305  0.8291E+01  0.8648E+02
      7.318  0.5717E+01  0.8655E+02
      7.330  0.4304E+01  0.8660E+02
      7.342  0.1853E+01  0.8663E+02
      7.355  0.2026E+01  0.8665E+02
      7.367  0.8105E+00  0.8666E+02
      7.380  0.1204E+00  0.8666E+02
      7.392  0.1170E+01  0.8668E+02
      7.405  0.1883E+01  0.8670E+02
      7.417  0.3292E+01  0.8674E+02
      7.430  0.4501E+01  0.8680E+02
      7.442  0.5095E+01  0.8686E+02
      7.455  0.5159E+01  0.8693E+02
      7.467  0.6695E+01  0.8701E+02
      7.480  0.1290E+02  0.8717E+02
      7.492  0.8081E+01  0.8727E+02
      7.505  0.3020E+01  0.8731E+02
      7.517  0.5667E+01  0.8738E+02
      7.530  0.6967E+01  0.8747E+02
      7.542  0.5225E+01  0.8753E+02
      7.555  0.4580E+01  0.8759E+02
      7.567  0.4393E+01  0.8764E+02
      7.579  0.2314E+01  0.8767E+02
      7.592  0.4609E+01  0.8773E+02
      7.604  0.9575E+01  0.8785E+02
      7.617  0.8816E+01  0.8796E+02
      7.629  0.5939E+01  0.8803E+02
      7.642  0.9066E+01  0.8815E+02
      7.654  0.1114E+02  0.8829E+02
      7.667  0.7555E+01  0.8838E+02
      7.679  0.8995E+01  0.8849E+02
      7.692  0.8784E+01  0.8860E+02
      7.704  0.7957E+01  0.8870E+02
      7.717  0.7168E+01  0.8879E+02
      7.729  0.6659E+01  0.8887E+02
      7.742  0.6768E+01  0.8896E+02
      7.754  0.9280E+01  0.8907E+02
      7.767  0.8030E+01  0.8917E+02
      7.779  0.6282E+01  0.8925E+02
      7.792  0.4608E+01  0.8931E+02
      7.804  0.8718E+01  0.8942E+02
      7.816  0.1094E+02  0.8956E+02
      7.829  0.1189E+02  0.8970E+02
      7.841  0.1451E+02  0.8988E+02
      7.854  0.8943E+01  0.9000E+02
      7.866  0.4131E+01  0.9005E+02
      7.879  0.9001E+01  0.9016E+02
      7.891  0.9009E+01  0.9027E+02
      7.904  0.1154E+02  0.9042E+02
      7.916  0.8702E+01  0.9053E+02
      7.929  0.7233E+01  0.9062E+02
      7.941  0.3795E+01  0.9066E+02
      7.954  0.3482E+01  0.9071E+02
      7.966  0.3580E+01  0.9075E+02
      7.979  0.4610E+01  0.9081E+02
      7.991  0.6869E+01  0.9089E+02
      8.004  0.8602E+01  0.9100E+02
      8.016  0.6545E+01  0.9108E+02
      8.029  0.4968E+01  0.9114E+02
      8.041  0.1436E+02  0.9132E+02
      8.053  0.1772E+02  0.9155E+02
      8.066  0.1260E+02  0.9170E+02
      8.078  0.7443E+01  0.9180E+02
      8.091  0.7861E+01  0.9189E+02
      8.103  0.1055E+02  0.9202E+02
      8.116  0.9580E+01  0.9214E+02
      8.128  0.7502E+01  0.9224E+02
      8.141  0.6457E+01  0.9232E+02
      8.153  0.7097E+01  0.9241E+02
      8.166  0.5147E+01  0.9247E+02
      8.178  0.6034E+01  0.9255E+02
      8.191  0.1089E+02  0.9268E+02
      8.203  0.9355E+01  0.9280E+02
      8.216  0.4134E+01  0.9285E+02
      8.228  0.5811E+01  0.9292E+02
      8.241  0.7072E+01  0.9301E+02
      8.253  0.4939E+01  0.9307E+02
      8.266  0.5708E+01  0.9314E+02
      8.278  0.5986E+01  0.9322E+02
      8.290  0.1022E+02  0.9335E+02
      8.303  0.1299E+02  0.9351E+02
      8.315  0.1367E+02  0.9368E+02
      8.328  0.9219E+01  0.9379E+02
      8.340  0.6884E+01  0.9388E+02
      8.353  0.1062E+02  0.9401E+02
      8.365  0.9097E+01  0.9413E+02
      8.378  0.7685E+01  0.9422E+02
      8.390  0.1252E+02  0.9438E+02
      8.403  0.1516E+02  0.9457E+02
      8.415  0.1107E+02  0.9470E+02
      8.428  0.9388E+01  0.9482E+02
      8.440  0.1246E+02  0.9498E+02
      8.453  0.1145E+02  0.9512E+02
      8.465  0.1472E+02  0.9530E+02
      8.478  0.1290E+02  0.9546E+02
      8.490  0.1032E+02  0.9559E+02
      8.503  0.1378E+02  0.9577E+02
      8.515  0.1660E+02  0.9597E+02
      8.527  0.1103E+02  0.9611E+02
      8.540  0.7919E+01  0.9621E+02
      8.552  0.1049E+02  0.9634E+02
      8.565  0.1382E+02  0.9651E+02
      8.577  0.1208E+02  0.9666E+02
      8.590  0.7646E+01  0.9676E+02
      8.602  0.7596E+01  0.9685E+02
      8.615  0.1029E+02  0.9698E+02
      8.627  0.9000E+01  0.9709E+02
      8.640  0.1125E+02  0.9723E+02
      8.652  0.1011E+02  0.9736E+02
      8.665  0.1085E+02  0.9750E+02
      8.677  0.1239E+02  0.9765E+02
      8.690  0.1387E+02  0.9782E+02
      8.702  0.1360E+02  0.9799E+02
      8.715  0.9346E+01  0.9811E+02
      8.727  0.9004E+01  0.9822E+02
      8.740  0.1204E+02  0.9837E+02
      8.752  0.1433E+02  0.9855E+02
      8.765  0.1442E+02  0.9873E+02
      8.777  0.1008E+02  0.9886E+02
      8.789  0.9060E+01  0.9897E+02
      8.802  0.1100E+02  0.9911E+02
      8.814  0.1161E+02  0.9925E+02
      8.827  0.9251E+01  0.9937E+02
      8.839  0.1120E+02  0.9951E+02
      8.852  0.8622E+01  0.9961E+02
      8.864  0.6647E+01  0.9970E+02
      8.877  0.9894E+01  0.9982E+02
      8.889  0.1262E+02  0.9998E+02
      8.902  0.1133E+02  0.1001E+03
      8.914  0.5765E+01  0.1002E+03
      8.927  0.6857E+01  0.1003E+03
      8.939  0.1010E+02  0.1004E+03
      8.952  0.8569E+01  0.1005E+03
      8.964  0.8288E+01  0.1006E+03
      8.977  0.1192E+02  0.1008E+03
      8.989  0.1397E+02  0.1009E+03
      9.002  0.1439E+02  0.1011E+03
      9.014  0.1242E+02  0.1013E+03
      9.026  0.9834E+01  0.1014E+03
      9.039  0.1163E+02  0.1015E+03
      9.051  0.1117E+02  0.1017E+03
      9.064  0.7748E+01  0.1018E+03
      9.076  0.1020E+02  0.1019E+03
      9.089  0.1204E+02  0.1021E+03
      9.101  0.1530E+02  0.1022E+03
      9.114  0.1560E+02  0.1024E+03
      9.126  0.7505E+01  0.1025E+03
      9.139  0.7170E+01  0.1026E+03
      9.151  0.6081E+01  0.1027E+03
      9.164  0.1076E+02  0.1028E+03
      9.176  0.1108E+02  0.1030E+03
      9.189  0.5748E+01  0.1030E+03
      9.201  0.1044E+02  0.1032E+03
      9.214  0.9348E+01  0.1033E+03
      9.226  0.9333E+01  0.1034E+03
      9.239  0.5822E+01  0.1035E+03
      9.251  0.9682E+01  0.1036E+03
      9.263  0.1565E+02  0.1038E+03
      9.276  0.1170E+02  0.1039E+03
      9.288  0.6189E+01  0.1040E+03
      9.301  0.7646E+01  0.1041E+03
      9.313  0.6069E+01  0.1042E+03
      9.326  0.3520E+01  0.1042E+03
      9.338  0.5619E+01  0.1043E+03
      9.351  0.1369E+02  0.1045E+03
      9.363  0.1259E+02  0.1046E+03
      9.376  0.7340E+01  0.1047E+03
      9.388  0.9222E+01  0.1048E+03
      9.401  0.1234E+02  0.1050E+03
      9.413  0.1244E+02  0.1051E+03
      9.426  0.8894E+01  0.1053E+03
      9.438  0.9108E+01  0.1054E+03
      9.451  0.1015E+02  0.1055E+03
      9.463  0.8650E+01  0.1056E+03
      9.476  0.9106E+01  0.1057E+03
      9.488  0.3737E+01  0.1058E+03
      9.500  0.8955E+01  0.1059E+03
      9.513  0.1190E+02  0.1060E+03
      9.525  0.1193E+02  0.1062E+03
      9.538  0.7705E+01  0.1063E+03
      9.550  0.3040E+01  0.1063E+03
      9.563  0.6216E+01  0.1064E+03
      9.575  0.7400E+01  0.1065E+03
      9.588  0.5576E+01  0.1065E+03
      9.600  0.9844E+01  0.1067E+03
      9.613  0.1141E+02  0.1068E+03
      9.625  0.9659E+01  0.1069E+03
      9.638  0.1241E+02  0.1071E+03
      9.650  0.1300E+02  0.1072E+03
      9.663  0.1012E+02  0.1074E+03
      9.675  0.7544E+01  0.1075E+03
      9.688  0.7923E+01  0.1076E+03
      9.700  0.7037E+01  0.1077E+03
      9.713  0.7208E+01  0.1077E+03
      9.725  0.1185E+02  0.1079E+03
      9.737  0.1244E+02  0.1080E+03
      9.750  0.7881E+01  0.1081E+03
      9.762  0.7369E+01  0.1082E+03
      9.775  0.1270E+02  0.1084E+03
      9.787  0.1811E+02  0.1086E+03
      9.800  0.1576E+02  0.1088E+03
      9.812  0.7107E+01  0.1089E+03
      9.825  0.5345E+01  0.1090E+03
      9.837  0.4703E+01  0.1090E+03
      9.850  0.8198E+01  0.1091E+03
      9.862  0.1021E+02  0.1093E+03
      9.875  0.1228E+02  0.1094E+03
      9.887  0.1135E+02  0.1096E+03
      9.900  0.5744E+01  0.1096E+03
      9.912  0.6711E+01  0.1097E+03
      9.925  0.8010E+01  0.1098E+03
      9.937  0.6020E+01  0.1099E+03
      9.950  0.6524E+01  0.1100E+03
      9.962  0.5653E+01  0.1100E+03
      9.975  0.8042E+01  0.1101E+03
      9.987  0.8435E+01  0.1102E+03
      9.999  0.1576E+02  0.1104E+03
     10.012  0.1500E+02  0.1106E+03
     10.024  0.5891E+01  0.1107E+03
     10.037  0.3019E+01  0.1107E+03
     10.049  0.5666E+01  0.1108E+03
     10.062  0.1032E+02  0.1109E+03
     10.074  0.1672E+02  0.1111E+03
     10.087  0.1372E+02  0.1113E+03
     10.099  0.9650E+01  0.1114E+03
     10.112  0.1027E+02  0.1116E+03
     10.124  0.9881E+01  0.1117E+03
     10.137  0.7358E+01  0.1118E+03
     10.149  0.5384E+01  0.1118E+03
     10.162  0.8314E+01  0.1120E+03
     10.174  0.8449E+01  0.1121E+03
     10.187  0.6245E+01  0.1121E+03
     10.199  0.7080E+01  0.1122E+03
     10.212  0.1051E+02  0.1124E+03
     10.224  0.1018E+02  0.1125E+03
     10.236  0.8794E+01  0.1126E+03
     10.249  0.6906E+01  0.1127E+03
     10.261  0.9744E+01  0.1128E+03
     10.274  0.1025E+02  0.1129E+03
     10.286  0.1269E+02  0.1131E+03
     10.299  0.1325E+02  0.1133E+03
     10.311  0.9692E+01  0.1134E+03
     10.324  0.8270E+01  0.1135E+03
     10.336  0.1237E+02  0.1136E+03
     10.349  0.1297E+02  0.1138E+03
     10.361  0.9116E+01  0.1139E+03
     10.374  0.9879E+01  0.1140E+03
     10.386  0.9517E+01  0.1141E+03
     10.399  0.7970E+01  0.1142E+03
     10.411  0.8078E+01  0.1143E+03
     10.424  0.8521E+01  0.1145E+03
     10.436  0.7836E+01  0.1146E+03
     10.449  0.8332E+01  0.1147E+03
     10.461  0.9140E+01  0.1148E+03
     10.473  0.9763E+01  0.1149E+03
     10.486  0.7213E+01  0.1150E+03
     10.498  0.6997E+01  0.1151E+03
     10.511  0.7115E+01  0.1152E+03
     10.523  0.7440E+01  0.1153E+03
     10.536  0.1012E+02  0.1154E+03
     10.548  0.1031E+02  0.1155E+03
     10.561  0.1248E+02  0.1157E+03
     10.573  0.8870E+01  0.1158E+03
     10.586  0.1052E+02  0.1159E+03
     10.598  0.7827E+01  0.1160E+03
     10.611  0.2988E+01  0.1160E+03
     10.623  0.5030E+01  0.1161E+03
     10.636  0.1082E+02  0.1162E+03
     10.648  0.1418E+02  0.1164E+03
     10.661  0.1170E+02  0.1166E+03
     10.673  0.7508E+01  0.1167E+03
     10.686  0.9043E+01  0.1168E+03
     10.698  0.1189E+02  0.1169E+03
     10.710  0.9423E+01  0.1170E+03
     10.723  0.5500E+01  0.1171E+03
     10.735  0.5220E+01  0.1172E+03
     10.748  0.4527E+01  0.1172E+03
     10.760  0.4571E+01  0.1173E+03
     10.773  0.9188E+01  0.1174E+03
     10.785  0.1015E+02  0.1175E+03
     10.798  0.9785E+01  0.1176E+03
     10.810  0.8124E+01  0.1177E+03
     10.823  0.7598E+01  0.1178E+03
     10.835  0.7202E+01  0.1179E+03
     10.848  0.7141E+01  0.1180E+03
     10.860  0.1134E+02  0.1182E+03
     10.873  0.9105E+01  0.1183E+03
     10.885  0.9811E+01  0.1184E+03
     10.898  0.1313E+02  0.1186E+03
     10.910  0.1022E+02  0.1187E+03
     10.923  0.8274E+01  0.1188E+03
     10.935  0.6360E+01  0.1189E+03
     10.947  0.5616E+01  0.1189E+03
     10.960  0.8315E+01  0.1190E+03
     10.972  0.1094E+02  0.1192E+03
     10.985  0.1111E+02  0.1193E+03
     10.997  0.8483E+01  0.1194E+03
     11.010  0.6801E+01  0.1195E+03
     11.022  0.6143E+01  0.1196E+03
     11.035  0.6519E+01  0.1197E+03
     11.047  0.8932E+01  0.1198E+03
     11.060  0.5783E+01  0.1198E+03
     11.072  0.2053E+01  0.1199E+03
     11.085  0.3896E+01  0.1199E+03
     11.097  0.5708E+01  0.1200E+03
     11.110  0.7349E+01  0.1201E+03
     11.122  0.1251E+02  0.1202E+03
     11.135  0.1182E+02  0.1204E+03
     11.147  0.4645E+01  0.1204E+03
     11.160  0.2237E+01  0.1205E+03
     11.172  0.6316E+01  0.1206E+03
     11.185  0.1060E+02  0.1207E+03
     11.197  0.9259E+01  0.1208E+03
     11.209  0.6755E+01  0.1209E+03
     11.222  0.5192E+01  0.1210E+03
     11.234  0.6416E+01  0.1210E+03
     11.247  0.5456E+01  0.1211E+03
     11.259  0.3881E+01  0.1211E+03
     11.272  0.5882E+01  0.1212E+03
     11.284  0.9714E+01  0.1213E+03
     11.297  0.8082E+01  0.1214E+03
     11.309  0.6057E+01  0.1215E+03
     11.322  0.5916E+01  0.1216E+03
     11.334  0.7383E+01  0.1217E+03
     11.347  0.7601E+01  0.1218E+03
     11.359  0.5511E+01  0.1218E+03
     11.372  0.5051E+01  0.1219E+03
     11.384  0.5928E+01  0.1220E+03
     11.397  0.5084E+01  0.1220E+03
     11.409  0.3751E+01  0.1221E+03
     11.422  0.2941E+01  0.1221E+03
     11.434  0.1906E+01  0.1222E+03
     11.446  0.7300E+01  0.1222E+03
     11.459  0.1162E+02  0.1224E+03
     11.471  0.1414E+02  0.1226E+03
     11.484  0.1243E+02  0.1227E+03
     11.496  0.8782E+01  0.1228E+03
     11.509  0.7143E+01  0.1229E+03
     11.521  0.7649E+01  0.1230E+03
     11.534  0.7439E+01  0.1231E+03
     11.546  0.5992E+01  0.1232E+03
     11.559  0.6984E+01  0.1233E+03
     11.571  0.4806E+01  0.1233E+03
     11.584  0.2077E+01  0.1234E+03
     11.596  0.4737E+01  0.1234E+03
     11.609  0.7990E+01  0.1235E+03
     11.621  0.8261E+01  0.1236E+03
     11.634  0.1243E+02  0.1238E+03
     11.646  0.1230E+02  0.1239E+03
     11.659  0.8518E+01  0.1240E+03
     11.671  0.4550E+01  0.1241E+03
     11.683  0.4759E+01  0.1241E+03
     11.696  0.5781E+01  0.1242E+03
     11.708  0.7107E+01  0.1243E+03
     11.721  0.6360E+01  0.1244E+03
     11.733  0.8705E+01  0.1245E+03
     11.746  0.9031E+01  0.1246E+03
     11.758  0.1292E+02  0.1248E+03
     11.771  0.1759E+02  0.1250E+03
     11.783  0.1460E+02  0.1252E+03
     11.796  0.8013E+01  0.1253E+03
     11.808  0.7535E+01  0.1254E+03
     11.821  0.5965E+01  0.1254E+03
     11.833  0.4888E+01  0.1255E+03
     11.846  0.5414E+01  0.1256E+03
     11.858  0.1030E+02  0.1257E+03
     11.871  0.8479E+01  0.1258E+03
     11.883  0.3837E+01  0.1259E+03
     11.896  0.4146E+01  0.1259E+03
     11.908  0.7453E+01  0.1260E+03
     11.920  0.6311E+01  0.1261E+03
     11.933  0.3060E+01  0.1261E+03
     11.945  0.7733E+01  0.1262E+03
     11.958  0.9005E+01  0.1263E+03
     11.970  0.4264E+01  0.1264E+03
     11.983  0.3186E+01  0.1264E+03
     11.995  0.6923E+01  0.1265E+03
     12.008  0.4331E+01  0.1266E+03
     12.020  0.2005E+01  0.1266E+03
     12.033  0.5868E+01  0.1267E+03
     12.045  0.5851E+01  0.1267E+03
     12.058  0.3152E+01  0.1268E+03
     12.070  0.7034E+01  0.1269E+03
     12.083  0.9994E+01  0.1270E+03
     12.095  0.1992E+02  0.1272E+03
     12.108  0.1826E+02  0.1275E+03
     12.120  0.1126E+02  0.1276E+03
     12.133  0.7375E+01  0.1277E+03
     12.145  0.3622E+01  0.1277E+03
     12.157  0.2469E+01  0.1278E+03
     12.170  0.5222E+01  0.1278E+03
     12.182  0.9854E+01  0.1280E+03
     12.195  0.9617E+01  0.1281E+03
     12.207  0.5949E+01  0.1281E+03
     12.220  0.7486E+01  0.1282E+03
     12.232  0.9974E+01  0.1284E+03
     12.245  0.8567E+01  0.1285E+03
     12.257  0.8085E+01  0.1286E+03
     12.270  0.5543E+01  0.1286E+03
     12.282  0.6114E+01  0.1287E+03
     12.295  0.9748E+01  0.1288E+03
     12.307  0.9514E+01  0.1290E+03
     12.320  0.8176E+01  0.1291E+03
     12.332  0.8478E+01  0.1292E+03
     12.345  0.1002E+02  0.1293E+03
     12.357  0.6209E+01  0.1294E+03
     12.370  0.7526E+01  0.1295E+03
     12.382  0.8119E+01  0.1296E+03
     12.394  0.1286E+02  0.1297E+03
     12.407  0.1185E+02  0.1299E+03
     12.419  0.1190E+02  0.1300E+03
     12.432  0.8257E+01  0.1301E+03
     12.444  0.7437E+01  0.1302E+03
     12.457  0.8008E+01  0.1303E+03
     12.469  0.1046E+02  0.1304E+03
     12.482  0.1346E+02  0.1306E+03
     12.494  0.8771E+01  0.1307E+03
     12.507  0.7612E+01  0.1308E+03
     12.519  0.9517E+01  0.1309E+03
     12.532  0.1156E+02  0.1311E+03
     12.544  0.1077E+02  0.1312E+03
     12.557  0.1003E+02  0.1313E+03
     12.569  0.8188E+01  0.1314E+03
     12.582  0.9309E+01  0.1316E+03
     12.594  0.5746E+01  0.1316E+03
     12.607  0.7996E+01  0.1317E+03
     12.619  0.1050E+02  0.1319E+03
     12.632  0.7151E+01  0.1320E+03
     12.644  0.5191E+01  0.1320E+03
     12.656  0.5854E+01  0.1321E+03
     12.669  0.9284E+01  0.1322E+03
     12.681  0.1024E+02  0.1323E+03
     12.694  0.7192E+01  0.1324E+03
     12.706  0.5980E+01  0.1325E+03
     12.719  0.6818E+01  0.1326E+03
     12.731  0.8117E+01  0.1327E+03
     12.744  0.6702E+01  0.1328E+03
     12.756  0.6574E+01  0.1328E+03
     12.769  0.7430E+01  0.1329E+03
     12.781  0.7553E+01  0.1330E+03
     12.794  0.7559E+01  0.1331E+03
     12.806  0.1063E+02  0.1333E+03
     12.819  0.1070E+02  0.1334E+03
     12.831  0.1070E+02  0.1335E+03
     12.844  0.1118E+02  0.1337E+03
     12.856  0.1189E+02  0.1338E+03
     12.869  0.9130E+01  0.1339E+03
     12.881  0.1028E+02  0.1341E+03
     12.893  0.7887E+01  0.1342E+03
     12.906  0.6607E+01  0.1342E+03
     12.918  0.8025E+01  0.1343E+03
     12.931  0.8027E+01  0.1344E+03
     12.943  0.1170E+02  0.1346E+03
     12.956  0.1270E+02  0.1347E+03
     12.968  0.9150E+01  0.1349E+03
     12.981  0.1105E+02  0.1350E+03
     12.993  0.1317E+02  0.1352E+03
     13.006  0.1259E+02  0.1353E+03
     13.018  0.1189E+02  0.1355E+03
     13.031  0.7476E+01  0.1356E+03
     13.043  0.4373E+01  0.1356E+03
     13.056  0.7700E+01  0.1357E+03
     13.068  0.7011E+01  0.1358E+03
     13.081  0.8535E+01  0.1359E+03
     13.093  0.1251E+02  0.1361E+03
     13.106  0.1111E+02  0.1362E+03
     13.118  0.9445E+01  0.1363E+03
     13.130  0.1092E+02  0.1365E+03
     13.143  0.1262E+02  0.1366E+03
     13.155  0.1242E+02  0.1368E+03
     13.168  0.1189E+02  0.1369E+03
     13.180  0.1527E+02  0.1371E+03
     13.193  0.1314E+02  0.1373E+03
     13.205  0.1009E+02  0.1374E+03
     13.218  0.1360E+02  0.1376E+03
     13.230  0.1177E+02  0.1377E+03
     13.243  0.7309E+01  0.1378E+03
     13.255  0.7939E+01  0.1379E+03
     13.268  0.6866E+01  0.1380E+03
     13.280  0.6696E+01  0.1381E+03
     13.293  0.7616E+01  0.1382E+03
     13.305  0.1069E+02  0.1383E+03
     13.318  0.9593E+01  0.1384E+03
     13.330  0.8213E+01  0.1385E+03
     13.343  0.9762E+01  0.1386E+03
     13.355  0.1148E+02  0.1388E+03
     13.367  0.9120E+01  0.1389E+03
     13.380  0.6704E+01  0.1390E+03
     13.392  0.7170E+01  0.1391E+03
     13.405  0.7650E+01  0.1392E+03
     13.417  0.3820E+01  0.1392E+03
     13.430  0.4431E+01  0.1393E+03
     13.442  0.5154E+01  0.1393E+03
     13.455  0.9895E+01  0.1395E+03
     13.467  0.1201E+02  0.1396E+03
     13.480  0.9752E+01  0.1397E+03
     13.492  0.6359E+01  0.1398E+03
     13.505  0.8723E+01  0.1399E+03
     13.517  0.8763E+01  0.1400E+03
     13.530  0.6232E+01  0.1401E+03
     13.542  0.5919E+01  0.1402E+03
     13.555  0.5387E+01  0.1402E+03
     13.567  0.7718E+01  0.1403E+03
     13.580  0.1077E+02  0.1405E+03
     13.592  0.9313E+01  0.1406E+03
     13.604  0.9161E+01  0.1407E+03
     13.617  0.1046E+02  0.1408E+03
     13.629  0.9762E+01  0.1410E+03
     13.642  0.3905E+01  0.1410E+03
     13.654  0.4610E+01  0.1411E+03
     13.667  0.1094E+02  0.1412E+03
     13.679  0.9705E+01  0.1413E+03
     13.692  0.6187E+01  0.1414E+03
     13.704  0.4012E+01  0.1414E+03
     13.717  0.5939E+01  0.1415E+03
     13.729  0.1030E+02  0.1417E+03
     13.742  0.1528E+02  0.1418E+03
     13.754  0.1363E+02  0.1420E+03
     13.767  0.9767E+01  0.1421E+03
     13.779  0.1021E+02  0.1423E+03
     13.792  0.1398E+02  0.1424E+03
     13.804  0.1151E+02  0.1426E+03
     13.817  0.3921E+01  0.1426E+03
     13.829  0.6432E+01  0.1427E+03
     13.842  0.1218E+02  0.1429E+03
     13.854  0.1237E+02  0.1430E+03
     13.866  0.9717E+01  0.1431E+03
     13.879  0.1150E+02  0.1433E+03
     13.891  0.1041E+02  0.1434E+03
     13.904  0.8586E+01  0.1435E+03
     13.916  0.9511E+01  0.1436E+03
     13.929  0.1142E+02  0.1438E+03
     13.941  0.1133E+02  0.1439E+03
     13.954  0.8525E+01  0.1440E+03
     13.966  0.1161E+02  0.1442E+03
     13.979  0.1533E+02  0.1444E+03
     13.991  0.1289E+02  0.1445E+03
     14.004  0.1417E+02  0.1447E+03
     14.016  0.1204E+02  0.1448E+03
     14.029  0.1269E+02  0.1450E+03
     14.041  0.1287E+02  0.1452E+03
     14.054  0.1255E+02  0.1453E+03
     14.066  0.9495E+01  0.1454E+03
     14.079  0.1003E+02  0.1456E+03
     14.091  0.8309E+01  0.1457E+03
     14.103  0.9693E+01  0.1458E+03
     14.116  0.1223E+02  0.1459E+03
     14.128  0.1627E+02  0.1461E+03
     14.141  0.1344E+02  0.1463E+03
     14.153  0.1165E+02  0.1465E+03
     14.166  0.1524E+02  0.1467E+03
     14.178  0.1094E+02  0.1468E+03
     14.191  0.8530E+01  0.1469E+03
     14.203  0.6782E+01  0.1470E+03
     14.216  0.7106E+01  0.1471E+03
     14.228  0.1319E+02  0.1472E+03
     14.241  0.1377E+02  0.1474E+03
     14.253  0.9438E+01  0.1475E+03
     14.266  0.1080E+02  0.1477E+03
     14.278  0.1414E+02  0.1478E+03
     14.291  0.1321E+02  0.1480E+03
     14.303  0.1671E+02  0.1482E+03
     14.316  0.1424E+02  0.1484E+03
     14.328  0.8416E+01  0.1485E+03
     14.340  0.9353E+01  0.1486E+03
     14.353  0.1126E+02  0.1487E+03
     14.365  0.8447E+01  0.1489E+03
     14.378  0.8736E+01  0.1490E+03
     14.390  0.9508E+01  0.1491E+03
     14.403  0.8412E+01  0.1492E+03
     14.415  0.1061E+02  0.1493E+03
     14.428  0.1193E+02  0.1495E+03
     14.440  0.1099E+02  0.1496E+03
     14.453  0.1007E+02  0.1497E+03
     14.465  0.1052E+02  0.1499E+03
     14.478  0.1018E+02  0.1500E+03
     14.490  0.9455E+01  0.1501E+03
     14.503  0.7360E+01  0.1502E+03
     14.515  0.8338E+01  0.1503E+03
     14.528  0.9399E+01  0.1504E+03
     14.540  0.7357E+01  0.1505E+03
     14.553  0.8961E+01  0.1506E+03
     14.565  0.9337E+01  0.1507E+03
     14.577  0.1203E+02  0.1509E+03
     14.590  0.9161E+01  0.1510E+03
     14.602  0.5608E+01  0.1511E+03
     14.615  0.5533E+01  0.1511E+03
     14.627  0.5324E+01  0.1512E+03
     14.640  0.3918E+01  0.1513E+03
     14.652  0.4721E+01  0.1513E+03
     14.665  0.8392E+01  0.1514E+03
     14.677  0.9709E+01  0.1515E+03
     14.690  0.1007E+02  0.1517E+03
     14.702  0.8355E+01  0.1518E+03
     14.715  0.8678E+01  0.1519E+03
     14.727  0.7642E+01  0.1520E+03
     14.740  0.9287E+01  0.1521E+03
     14.752  0.8925E+01  0.1522E+03
     14.765  0.8270E+01  0.1523E+03
     14.777  0.1154E+02  0.1524E+03
     14.790  0.1173E+02  0.1526E+03
     14.802  0.6557E+01  0.1527E+03
     14.814  0.7240E+01  0.1528E+03
     14.827  0.9683E+01  0.1529E+03
     14.839  0.8529E+01  0.1530E+03
     14.852  0.1109E+02  0.1531E+03
     14.864  0.1559E+02  0.1533E+03
     14.877  0.1813E+02  0.1536E+03
     14.889  0.1381E+02  0.1537E+03
     14.902  0.9915E+01  0.1538E+03
     14.914  0.1106E+02  0.1540E+03
     14.927  0.1153E+02  0.1541E+03
     14.939  0.1117E+02  0.1543E+03
     14.952  0.1047E+02  0.1544E+03
     14.964  0.1433E+02  0.1546E+03
     14.977  0.1553E+02  0.1548E+03
     14.989  0.1096E+02  0.1549E+03
     15.002  0.8638E+01  0.1550E+03
     15.014  0.7909E+01  0.1551E+03
     15.027  0.1151E+02  0.1553E+03
     15.039  0.8987E+01  0.1554E+03
     15.052  0.6938E+01  0.1555E+03
     15.064  0.1088E+02  0.1556E+03
     15.076  0.1078E+02  0.1557E+03
     15.089  0.8529E+01  0.1558E+03
     15.101  0.9842E+01  0.1560E+03
     15.114  0.9390E+01  0.1561E+03
     15.126  0.8289E+01  0.1562E+03
     15.139  0.8660E+01  0.1563E+03
     15.151  0.9472E+01  0.1564E+03
     15.164  0.1174E+02  0.1565E+03
     15.176  0.1273E+02  0.1567E+03
     15.189  0.9825E+01  0.1568E+03
     15.201  0.9607E+01  0.1570E+03
     15.214  0.1026E+02  0.1571E+03
     15.226  0.9502E+01  0.1572E+03
     15.239  0.1100E+02  0.1573E+03
     15.251  0.1270E+02  0.1575E+03
     15.264  0.7771E+01  0.1576E+03
     15.276  0.6058E+01  0.1577E+03
     15.289  0.7955E+01  0.1578E+03
     15.301  0.8987E+01  0.1579E+03
     15.313  0.9702E+01  0.1580E+03
     15.326  0.5682E+01  0.1581E+03
     15.338  0.5411E+01  0.1581E+03
     15.351  0.5300E+01  0.1582E+03
     15.363  0.4553E+01  0.1583E+03
     15.376  0.1021E+02  0.1584E+03
     15.388  0.9933E+01  0.1585E+03
     15.401  0.8148E+01  0.1586E+03
     15.413  0.9611E+01  0.1587E+03
     15.426  0.1040E+02  0.1589E+03
     15.438  0.1319E+02  0.1590E+03
     15.451  0.1125E+02  0.1592E+03
     15.463  0.7772E+01  0.1593E+03
     15.476  0.7823E+01  0.1594E+03
     15.488  0.6819E+01  0.1594E+03
     15.501  0.7538E+01  0.1595E+03
     15.513  0.9360E+01  0.1597E+03
     15.526  0.8818E+01  0.1598E+03
     15.538  0.6989E+01  0.1599E+03
     15.550  0.8006E+01  0.1600E+03
     15.563  0.9896E+01  0.1601E+03
     15.575  0.1518E+02  0.1603E+03
     15.588  0.1333E+02  0.1604E+03
     15.600  0.1319E+02  0.1606E+03
     15.613  0.1207E+02  0.1607E+03
     15.625  0.1022E+02  0.1609E+03
     15.638  0.1051E+02  0.1610E+03
     15.650  0.1119E+02  0.1611E+03
     15.663  0.9551E+01  0.1613E+03
     15.675  0.7715E+01  0.1614E+03
     15.688  0.6664E+01  0.1614E+03
     15.700  0.5677E+01  0.1615E+03
     15.713  0.8005E+01  0.1616E+03
     15.725  0.1020E+02  0.1617E+03
     15.738  0.1078E+02  0.1619E+03
     15.750  0.9566E+01  0.1620E+03
     15.763  0.1225E+02  0.1621E+03
     15.775  0.1156E+02  0.1623E+03
     15.787  0.7157E+01  0.1624E+03
     15.800  0.6607E+01  0.1625E+03
     15.812  0.7494E+01  0.1626E+03
     15.825  0.8361E+01  0.1627E+03
     15.837  0.7765E+01  0.1628E+03
     15.850  0.1120E+02  0.1629E+03
     15.862  0.1278E+02  0.1631E+03
     15.875  0.6058E+01  0.1631E+03
     15.887  0.5734E+01  0.1632E+03
     15.900  0.9343E+01  0.1633E+03
     15.912  0.8177E+01  0.1634E+03
     15.925  0.5969E+01  0.1635E+03
     15.937  0.7411E+01  0.1636E+03
     15.950  0.9933E+01  0.1637E+03
     15.962  0.1194E+02  0.1639E+03
     15.975  0.1191E+02  0.1640E+03
     15.987  0.1023E+02  0.1641E+03
     16.000  0.7758E+01  0.1642E+03
     16.012  0.5664E+01  0.1643E+03
     16.024  0.7596E+01  0.1644E+03
     16.037  0.6908E+01  0.1645E+03
     16.049  0.7028E+01  0.1646E+03
     16.062  0.8098E+01  0.1647E+03
     16.074  0.1025E+02  0.1648E+03
     16.087  0.8878E+01  0.1649E+03
     16.099  0.1012E+02  0.1650E+03
     16.112  0.9408E+01  0.1652E+03
     16.124  0.8350E+01  0.1653E+03
     16.137  0.5799E+01  0.1653E+03
     16.149  0.4802E+01  0.1654E+03
     16.162  0.3661E+01  0.1654E+03
     16.174  0.5837E+01  0.1655E+03
     16.187  0.6567E+01  0.1656E+03
     16.199  0.5881E+01  0.1657E+03
     16.212  0.5210E+01  0.1657E+03
     16.224  0.5327E+01  0.1658E+03
     16.237  0.7386E+01  0.1659E+03
     16.249  0.7441E+01  0.1660E+03
     16.262  0.7451E+01  0.1661E+03
     16.274  0.6644E+01  0.1662E+03
     16.286  0.6191E+01  0.1662E+03
     16.299  0.6866E+01  0.1663E+03
     16.311  0.7172E+01  0.1664E+03
     16.324  0.5635E+01  0.1665E+03
     16.336  0.5526E+01  0.1666E+03
     16.349  0.4802E+01  0.1666E+03
     16.361  0.3605E+01  0.1667E+03
     16.374  0.5799E+01  0.1667E+03
     16.386  0.6230E+01  0.1668E+03
     16.399  0.4785E+01  0.1669E+03
     16.411  0.3351E+01  0.1669E+03
     16.424  0.3651E+01  0.1670E+03
     16.436  0.6170E+01  0.1670E+03
     16.449  0.7142E+01  0.1671E+03
     16.461  0.7626E+01  0.1672E+03
     16.474  0.9297E+01  0.1673E+03
     16.486  0.8309E+01  0.1674E+03
     16.499  0.5699E+01  0.1675E+03
     16.511  0.4366E+01  0.1676E+03
     16.523  0.7502E+01  0.1677E+03
     16.536  0.1229E+02  0.1678E+03
     16.548  0.1007E+02  0.1679E+03
     16.561  0.6579E+01  0.1680E+03
     16.573  0.1064E+02  0.1681E+03
     16.586  0.1295E+02  0.1683E+03
     16.598  0.8949E+01  0.1684E+03
     16.611  0.9432E+01  0.1685E+03
     16.623  0.1105E+02  0.1687E+03
     16.636  0.1117E+02  0.1688E+03
     16.648  0.1118E+02  0.1690E+03
     16.661  0.1311E+02  0.1691E+03
     16.673  0.1080E+02  0.1693E+03
     16.686  0.8992E+01  0.1694E+03
     16.698  0.7414E+01  0.1695E+03
     16.711  0.1008E+02  0.1696E+03
     16.723  0.1280E+02  0.1697E+03
     16.736  0.1163E+02  0.1699E+03
     16.748  0.7893E+01  0.1700E+03
     16.760  0.3348E+01  0.1700E+03
     16.773  0.3224E+01  0.1701E+03
     16.785  0.7430E+01  0.1702E+03
     16.798  0.1322E+02  0.1703E+03
     16.810  0.1074E+02  0.1705E+03
     16.823  0.1020E+02  0.1706E+03
     16.835  0.8859E+01  0.1707E+03
     16.848  0.1291E+02  0.1709E+03
     16.860  0.1404E+02  0.1710E+03
     16.873  0.1287E+02  0.1712E+03
     16.885  0.1294E+02  0.1714E+03
     16.898  0.1226E+02  0.1715E+03
     16.910  0.1093E+02  0.1716E+03
     16.923  0.5211E+01  0.1717E+03
     16.935  0.2452E+01  0.1717E+03
     16.948  0.4380E+01  0.1718E+03
     16.960  0.5886E+01  0.1719E+03
     16.973  0.7752E+01  0.1720E+03
     16.985  0.1197E+02  0.1721E+03
     16.997  0.1096E+02  0.1723E+03
     17.010  0.7182E+01  0.1723E+03
     17.022  0.7015E+01  0.1724E+03
     17.035  0.9572E+01  0.1726E+03
     17.047  0.9740E+01  0.1727E+03
     17.060  0.8907E+01  0.1728E+03
     17.072  0.1323E+02  0.1729E+03
     17.085  0.1862E+02  0.1732E+03
     17.097  0.1410E+02  0.1734E+03
     17.110  0.1259E+02  0.1735E+03
     17.122  0.1505E+02  0.1737E+03
     17.135  0.1242E+02  0.1739E+03
     17.147  0.1549E+02  0.1740E+03
     17.160  0.1433E+02  0.1742E+03
     17.172  0.1181E+02  0.1744E+03
     17.185  0.1050E+02  0.1745E+03
     17.197  0.9863E+01  0.1746E+03
     17.210  0.9440E+01  0.1747E+03
     17.222  0.8517E+01  0.1749E+03
     17.234  0.9555E+01  0.1750E+03
     17.247  0.8145E+01  0.1751E+03
     17.259  0.7193E+01  0.1752E+03
     17.272  0.8351E+01  0.1753E+03
     17.284  0.1022E+02  0.1754E+03
     17.297  0.1263E+02  0.1756E+03
     17.309  0.1287E+02  0.1757E+03
     17.322  0.8823E+01  0.1758E+03
     17.334  0.1007E+02  0.1759E+03
     17.347  0.8845E+01  0.1761E+03
     17.359  0.5063E+01  0.1761E+03
     17.372  0.7289E+01  0.1762E+03
     17.384  0.1052E+02  0.1763E+03
     17.397  0.1228E+02  0.1765E+03
     17.409  0.1191E+02  0.1766E+03
     17.422  0.9295E+01  0.1768E+03
     17.434  0.8398E+01  0.1769E+03
     17.447  0.1101E+02  0.1770E+03
     17.459  0.8435E+01  0.1771E+03
     17.471  0.6260E+01  0.1772E+03
     17.484  0.1123E+02  0.1773E+03
     17.496  0.1050E+02  0.1775E+03
     17.509  0.6472E+01  0.1775E+03
     17.521  0.7809E+01  0.1776E+03
     17.534  0.1001E+02  0.1778E+03
     17.546  0.7205E+01  0.1779E+03
     17.559  0.5434E+01  0.1779E+03
     17.571  0.8511E+01  0.1780E+03
     17.584  0.1180E+02  0.1782E+03
     17.596  0.9589E+01  0.1783E+03
     17.609  0.9335E+01  0.1784E+03
     17.621  0.1012E+02  0.1785E+03
     17.634  0.7131E+01  0.1786E+03
     17.646  0.7288E+01  0.1787E+03
     17.659  0.1042E+02  0.1788E+03
     17.671  0.9063E+01  0.1790E+03
     17.684  0.1504E+02  0.1791E+03
     17.696  0.1412E+02  0.1793E+03
     17.709  0.1000E+02  0.1794E+03
     17.721  0.8837E+01  0.1796E+03
     17.733  0.1034E+02  0.1797E+03
     17.746  0.1244E+02  0.1798E+03
     17.758  0.1400E+02  0.1800E+03
     17.771  0.9602E+01  0.1801E+03
     17.783  0.1030E+02  0.1803E+03
     17.796  0.1206E+02  0.1804E+03
     17.808  0.1086E+02  0.1805E+03
     17.821  0.1238E+02  0.1807E+03
     17.833  0.1090E+02  0.1808E+03
     17.846  0.1273E+02  0.1810E+03
     17.858  0.1030E+02  0.1811E+03
     17.871  0.9690E+01  0.1812E+03
     17.883  0.9803E+01  0.1814E+03
     17.896  0.1065E+02  0.1815E+03
     17.908  0.9828E+01  0.1816E+03
     17.921  0.9524E+01  0.1817E+03
     17.933  0.5425E+01  0.1818E+03
     17.946  0.5695E+01  0.1819E+03
     17.958  0.8681E+01  0.1820E+03
     17.970  0.1291E+02  0.1822E+03
     17.983  0.1010E+02  0.1823E+03
     17.995  0.9066E+01  0.1824E+03
     18.008  0.8259E+01  0.1825E+03
     18.020  0.6840E+01  0.1826E+03
     18.033  0.6403E+01  0.1827E+03
     18.045  0.1034E+02  0.1828E+03
     18.058  0.1322E+02  0.1830E+03
     18.070  0.1034E+02  0.1831E+03
     18.083  0.7923E+01  0.1832E+03
     18.095  0.8019E+01  0.1833E+03
     18.108  0.1031E+02  0.1834E+03
     18.120  0.1293E+02  0.1836E+03
     18.133  0.1170E+02  0.1837E+03
     18.145  0.9874E+01  0.1838E+03
     18.158  0.1212E+02  0.1840E+03
     18.170  0.1354E+02  0.1842E+03
     18.183  0.1046E+02  0.1843E+03
     18.195  0.8367E+01  0.1844E+03
     18.207  0.9371E+01  0.1845E+03
     18.220  0.1342E+02  0.1847E+03
     18.232  0.1317E+02  0.1848E+03
     18.245  0.1296E+02  0.1850E+03
     18.257  0.1077E+02  0.1851E+03
     18.270  0.1118E+02  0.1853E+03
     18.282  0.9221E+01  0.1854E+03
     18.295  0.5797E+01  0.1855E+03
     18.307  0.5048E+01  0.1855E+03
     18.320  0.9187E+01  0.1856E+03
     18.332  0.1481E+02  0.1858E+03
     18.345  0.1320E+02  0.1860E+03
     18.357  0.1151E+02  0.1861E+03
     18.370  0.1021E+02  0.1863E+03
     18.382  0.4567E+01  0.1863E+03
     18.395  0.4716E+01  0.1864E+03
     18.407  0.6283E+01  0.1865E+03
     18.420  0.5583E+01  0.1865E+03
     18.432  0.4091E+01  0.1866E+03
     18.444  0.9640E+01  0.1867E+03
     18.457  0.1326E+02  0.1869E+03
     18.469  0.1097E+02  0.1870E+03
     18.482  0.7203E+01  0.1871E+03
     18.494  0.7783E+01  0.1872E+03
     18.507  0.8660E+01  0.1873E+03
     18.519  0.9586E+01  0.1874E+03
     18.532  0.1083E+02  0.1876E+03
     18.544  0.1058E+02  0.1877E+03
     18.557  0.9871E+01  0.1878E+03
     18.569  0.5357E+01  0.1879E+03
     18.582  0.6518E+01  0.1880E+03
     18.594  0.9665E+01  0.1881E+03
     18.607  0.1112E+02  0.1882E+03
     18.619  0.1421E+02  0.1884E+03
     18.632  0.1419E+02  0.1886E+03
     18.644  0.1434E+02  0.1887E+03
     18.657  0.1309E+02  0.1889E+03
     18.669  0.5657E+01  0.1890E+03
     18.681  0.4245E+01  0.1890E+03
     18.694  0.8999E+01  0.1891E+03
     18.706  0.1125E+02  0.1893E+03
     18.719  0.1212E+02  0.1894E+03
     18.731  0.1001E+02  0.1896E+03
     18.744  0.7482E+01  0.1897E+03
     18.756  0.1026E+02  0.1898E+03
     18.769  0.1282E+02  0.1899E+03
     18.781  0.1193E+02  0.1901E+03
     18.794  0.1254E+02  0.1902E+03
     18.806  0.9633E+01  0.1904E+03
     18.819  0.7647E+01  0.1905E+03
     18.831  0.1233E+02  0.1906E+03
     18.844  0.1662E+02  0.1908E+03
     18.856  0.1470E+02  0.1910E+03
     18.869  0.7924E+01  0.1911E+03
     18.881  0.5926E+01  0.1912E+03
     18.894  0.1132E+02  0.1913E+03
     18.906  0.1233E+02  0.1915E+03
     18.919  0.1270E+02  0.1916E+03
     18.931  0.1277E+02  0.1918E+03
     18.943  0.1193E+02  0.1919E+03
     18.956  0.1304E+02  0.1921E+03
     18.968  0.1478E+02  0.1923E+03
     18.981  0.1120E+02  0.1924E+03
     18.993  0.7925E+01  0.1925E+03
     19.006  0.8467E+01  0.1926E+03
     19.018  0.1451E+02  0.1928E+03
     19.031  0.1630E+02  0.1930E+03
     19.043  0.1191E+02  0.1932E+03
     19.056  0.1061E+02  0.1933E+03
     19.068  0.8256E+01  0.1934E+03
     19.081  0.6759E+01  0.1935E+03
     19.093  0.8517E+01  0.1936E+03
     19.106  0.1175E+02  0.1937E+03
     19.118  0.8872E+01  0.1939E+03
     19.131  0.7017E+01  0.1939E+03
     19.143  0.7294E+01  0.1940E+03
     19.156  0.1085E+02  0.1942E+03
     19.168  0.1454E+02  0.1943E+03
     19.180  0.1292E+02  0.1945E+03
     19.193  0.1074E+02  0.1946E+03
     19.205  0.1703E+02  0.1949E+03
     19.218  0.1289E+02  0.1950E+03
     19.230  0.9406E+01  0.1951E+03
     19.243  0.9505E+01  0.1953E+03
     19.255  0.9765E+01  0.1954E+03
     19.268  0.7858E+01  0.1955E+03
     19.280  0.8931E+01  0.1956E+03
     19.293  0.8261E+01  0.1957E+03
     19.305  0.1259E+02  0.1958E+03
     19.318  0.1419E+02  0.1960E+03
     19.330  0.1304E+02  0.1962E+03
     19.343  0.1289E+02  0.1963E+03
     19.355  0.1385E+02  0.1965E+03
     19.368  0.9073E+01  0.1966E+03
     19.380  0.7783E+01  0.1967E+03
     19.393  0.1156E+02  0.1969E+03
     19.405  0.1143E+02  0.1970E+03
     19.417  0.1362E+02  0.1972E+03
     19.430  0.8658E+01  0.1973E+03
     19.442  0.5061E+01  0.1974E+03
     19.455  0.4195E+01  0.1974E+03
     19.467  0.6991E+01  0.1975E+03
     19.480  0.8402E+01  0.1976E+03
     19.492  0.9868E+01  0.1977E+03
     19.505  0.6719E+01  0.1978E+03
     19.517  0.6325E+01  0.1979E+03
     19.530  0.7100E+01  0.1980E+03
     19.542  0.7160E+01  0.1981E+03
     19.555  0.9512E+01  0.1982E+03
     19.567  0.1196E+02  0.1983E+03
     19.580  0.1639E+02  0.1985E+03
     19.592  0.1332E+02  0.1987E+03
     19.605  0.8660E+01  0.1988E+03
     19.617  0.1221E+02  0.1990E+03
     19.630  0.1817E+02  0.1992E+03
     19.642  0.1224E+02  0.1993E+03
     19.654  0.8983E+01  0.1995E+03
     19.667  0.1192E+02  0.1996E+03
     19.679  0.1027E+02  0.1997E+03
     19.692  0.1023E+02  0.1999E+03
     19.704  0.1245E+02  0.2000E+03
     19.717  0.9230E+01  0.2001E+03
     19.729  0.1021E+02  0.2003E+03
     19.742  0.1150E+02  0.2004E+03
     19.754  0.8956E+01  0.2005E+03
     19.767  0.7398E+01  0.2006E+03
     19.779  0.9602E+01  0.2007E+03
     19.792  0.1055E+02  0.2009E+03
     19.804  0.1122E+02  0.2010E+03
     19.817  0.1403E+02  0.2012E+03
     19.829  0.1065E+02  0.2013E+03
     19.842  0.8876E+01  0.2014E+03
     19.854  0.1216E+02  0.2016E+03
     19.867  0.1507E+02  0.2018E+03
     19.879  0.1631E+02  0.2020E+03
     19.891  0.1771E+02  0.2022E+03
     19.904  0.1406E+02  0.2024E+03
     19.916  0.1134E+02  0.2025E+03
     19.929  0.9113E+01  0.2026E+03
     19.941  0.1088E+02  0.2027E+03
     19.954  0.1259E+02  0.2029E+03
     19.966  0.9716E+01  0.2030E+03
     19.979  0.8544E+01  0.2031E+03
     19.991  0.1155E+02  0.2033E+03
     20.004  0.1360E+02  0.2034E+03
     20.016  0.1318E+02  0.2036E+03
     20.029  0.1308E+02  0.2038E+03
     20.041  0.1129E+02  0.2039E+03
     20.054  0.1140E+02  0.2041E+03
     20.066  0.1199E+02  0.2042E+03
     20.079  0.1320E+02  0.2044E+03
     20.091  0.1607E+02  0.2046E+03
     20.104  0.1782E+02  0.2048E+03
     20.116  0.1298E+02  0.2049E+03
     20.129  0.7367E+01  0.2050E+03
     20.141  0.7222E+01  0.2051E+03
     20.153  0.7282E+01  0.2052E+03
     20.166  0.9948E+01  0.2053E+03
     20.178  0.9667E+01  0.2055E+03
     20.191  0.9348E+01  0.2056E+03
     20.203  0.1032E+02  0.2057E+03
     20.216  0.1163E+02  0.2059E+03
     20.228  0.9293E+01  0.2060E+03
     20.241  0.9381E+01  0.2061E+03
     20.253  0.1049E+02  0.2062E+03
     20.266  0.1467E+02  0.2064E+03
     20.278  0.1415E+02  0.2066E+03
     20.291  0.1197E+02  0.2067E+03
     20.303  0.9381E+01  0.2068E+03
     20.316  0.8384E+01  0.2070E+03
     20.328  0.8074E+01  0.2071E+03
     20.341  0.8280E+01  0.2072E+03
     20.353  0.1137E+02  0.2073E+03
     20.366  0.1409E+02  0.2075E+03
     20.378  0.1286E+02  0.2076E+03
     20.390  0.1010E+02  0.2078E+03
     20.403  0.1148E+02  0.2079E+03
     20.415  0.1185E+02  0.2081E+03
     20.428  0.1140E+02  0.2082E+03
     20.440  0.1313E+02  0.2084E+03
     20.453  0.1304E+02  0.2085E+03
     20.465  0.1062E+02  0.2087E+03
     20.478  0.8401E+01  0.2088E+03
     20.490  0.6523E+01  0.2088E+03
     20.503  0.8057E+01  0.2089E+03
     20.515  0.1348E+02  0.2091E+03
     20.528  0.1494E+02  0.2093E+03
     20.540  0.1457E+02  0.2095E+03
     20.553  0.1282E+02  0.2096E+03
     20.565  0.1189E+02  0.2098E+03
     20.578  0.1022E+02  0.2099E+03
     20.590  0.1032E+02  0.2100E+03
     20.603  0.1380E+02  0.2102E+03
     20.615  0.1310E+02  0.2104E+03
     20.627  0.6381E+01  0.2105E+03
     20.640  0.5978E+01  0.2105E+03
     20.652  0.7511E+01  0.2106E+03
     20.665  0.8117E+01  0.2107E+03
     20.677  0.5425E+01  0.2108E+03
     20.690  0.9601E+01  0.2109E+03
     20.702  0.1603E+02  0.2111E+03
     20.715  0.1001E+02  0.2112E+03
     20.727  0.6442E+01  0.2113E+03
     20.740  0.9531E+01  0.2114E+03
     20.752  0.8187E+01  0.2115E+03
     20.765  0.1027E+02  0.2117E+03
     20.777  0.1037E+02  0.2118E+03
     20.790  0.1182E+02  0.2119E+03
     20.802  0.1181E+02  0.2121E+03
     20.815  0.9499E+01  0.2122E+03
     20.827  0.1114E+02  0.2123E+03
     20.840  0.1049E+02  0.2125E+03
     20.852  0.1369E+02  0.2126E+03
     20.864  0.1754E+02  0.2129E+03
     20.877  0.1520E+02  0.2131E+03
     20.889  0.1358E+02  0.2132E+03
     20.902  0.1428E+02  0.2134E+03
     20.914  0.1523E+02  0.2136E+03
     20.927  0.1125E+02  0.2137E+03
     20.939  0.7411E+01  0.2138E+03
     20.952  0.9863E+01  0.2140E+03
     20.964  0.8699E+01  0.2141E+03
     20.977  0.9411E+01  0.2142E+03
     20.989  0.7522E+01  0.2143E+03
     21.002  0.5869E+01  0.2143E+03
     21.014  0.1077E+02  0.2145E+03
     21.027  0.1278E+02  0.2146E+03
     21.039  0.1018E+02  0.2148E+03
     21.052  0.1298E+02  0.2149E+03
     21.064  0.1196E+02  0.2151E+03
     21.077  0.1431E+02  0.2153E+03
     21.089  0.1770E+02  0.2155E+03
     21.101  0.1673E+02  0.2157E+03
     21.114  0.1043E+02  0.2158E+03
     21.126  0.9132E+01  0.2159E+03
     21.139  0.1041E+02  0.2161E+03
     21.151  0.9610E+01  0.2162E+03
     21.164  0.6514E+01  0.2163E+03
     21.176  0.8736E+01  0.2164E+03
     21.189  0.6787E+01  0.2165E+03
     21.201  0.6618E+01  0.2165E+03
     21.214  0.8253E+01  0.2166E+03
     21.226  0.6452E+01  0.2167E+03
     21.239  0.9592E+01  0.2168E+03
     21.251  0.1340E+02  0.2170E+03
     21.264  0.1271E+02  0.2172E+03
     21.276  0.1417E+02  0.2173E+03
     21.289  0.1212E+02  0.2175E+03
     21.301  0.6126E+01  0.2176E+03
     21.314  0.7650E+01  0.2177E+03
     21.326  0.7932E+01  0.2178E+03
     21.339  0.7825E+01  0.2179E+03
     21.351  0.1157E+02  0.2180E+03
     21.363  0.1384E+02  0.2182E+03
     21.376  0.1465E+02  0.2184E+03
     21.388  0.1469E+02  0.2185E+03
     21.401  0.1385E+02  0.2187E+03
     21.413  0.1184E+02  0.2189E+03
     21.426  0.1320E+02  0.2190E+03
     21.438  0.1041E+02  0.2192E+03
     21.451  0.1004E+02  0.2193E+03
     21.463  0.1259E+02  0.2194E+03
     21.476  0.1128E+02  0.2196E+03
     21.488  0.1440E+02  0.2198E+03
     21.501  0.1200E+02  0.2199E+03
     21.513  0.9964E+01  0.2200E+03
     21.526  0.9847E+01  0.2202E+03
     21.538  0.1312E+02  0.2203E+03
     21.551  0.1117E+02  0.2205E+03
     21.563  0.9922E+01  0.2206E+03
     21.576  0.1249E+02  0.2207E+03
     21.588  0.9805E+01  0.2209E+03
     21.600  0.9556E+01  0.2210E+03
     21.613  0.1152E+02  0.2211E+03
     21.625  0.1389E+02  0.2213E+03
     21.638  0.1566E+02  0.2215E+03
     21.650  0.1093E+02  0.2216E+03
     21.663  0.8387E+01  0.2217E+03
     21.675  0.7762E+01  0.2218E+03
     21.688  0.6697E+01  0.2219E+03
     21.700  0.9213E+01  0.2220E+03
     21.713  0.1026E+02  0.2222E+03
     21.725  0.8599E+01  0.2223E+03
     21.738  0.7929E+01  0.2224E+03
     21.750  0.9051E+01  0.2225E+03
     21.763  0.1073E+02  0.2226E+03
     21.775  0.1445E+02  0.2228E+03
     21.788  0.1161E+02  0.2229E+03
     21.800  0.1456E+02  0.2231E+03
     21.813  0.2102E+02  0.2234E+03
     21.825  0.1926E+02  0.2236E+03
     21.837  0.1603E+02  0.2238E+03
     21.850  0.1378E+02  0.2240E+03
     21.862  0.1143E+02  0.2241E+03
     21.875  0.9396E+01  0.2243E+03
     21.887  0.7099E+01  0.2243E+03
     21.900  0.7532E+01  0.2244E+03
     21.912  0.8217E+01  0.2245E+03
     21.925  0.1025E+02  0.2247E+03
     21.937  0.1499E+02  0.2249E+03
     21.950  0.1801E+02  0.2251E+03
     21.962  0.1413E+02  0.2253E+03
     21.975  0.1046E+02  0.2254E+03
     21.987  0.9724E+01  0.2255E+03
     22.000  0.1150E+02  0.2256E+03
     22.012  0.9622E+01  0.2258E+03
     22.025  0.7557E+01  0.2259E+03
     22.037  0.1218E+02  0.2260E+03
     22.050  0.1610E+02  0.2262E+03
     22.062  0.1571E+02  0.2264E+03
     22.074  0.9709E+01  0.2265E+03
     22.087  0.1204E+02  0.2267E+03
     22.099  0.1552E+02  0.2269E+03
     22.112  0.1850E+02  0.2271E+03
     22.124  0.1309E+02  0.2273E+03
     22.137  0.1280E+02  0.2274E+03
     22.149  0.1619E+02  0.2276E+03
     22.162  0.1623E+02  0.2278E+03
     22.174  0.1712E+02  0.2280E+03
     22.187  0.1600E+02  0.2282E+03
     22.199  0.1766E+02  0.2285E+03
     22.212  0.1427E+02  0.2286E+03
     22.224  0.9651E+01  0.2288E+03
     22.237  0.9662E+01  0.2289E+03
     22.249  0.1538E+02  0.2291E+03
     22.262  0.1509E+02  0.2293E+03
     22.274  0.1410E+02  0.2294E+03
     22.287  0.1328E+02  0.2296E+03
     22.299  0.8737E+01  0.2297E+03
     22.311  0.1059E+02  0.2298E+03
     22.324  0.1733E+02  0.2301E+03
     22.336  0.1560E+02  0.2303E+03
     22.349  0.1367E+02  0.2304E+03
     22.361  0.1468E+02  0.2306E+03
     22.374  0.1098E+02  0.2308E+03
     22.386  0.1282E+02  0.2309E+03
     22.399  0.1168E+02  0.2311E+03
     22.411  0.1131E+02  0.2312E+03
     22.424  0.1135E+02  0.2313E+03
     22.436  0.9208E+01  0.2315E+03
     22.449  0.1198E+02  0.2316E+03
     22.461  0.1389E+02  0.2318E+03
     22.474  0.1451E+02  0.2320E+03
     22.486  0.1664E+02  0.2322E+03
     22.499  0.1696E+02  0.2324E+03
     22.511  0.1489E+02  0.2326E+03
     22.524  0.1344E+02  0.2327E+03
     22.536  0.1496E+02  0.2329E+03
     22.548  0.1628E+02  0.2331E+03
     22.561  0.1027E+02  0.2332E+03
     22.573  0.1225E+02  0.2334E+03
     22.586  0.1257E+02  0.2336E+03
     22.598  0.1043E+02  0.2337E+03
     22.611  0.9938E+01  0.2338E+03
     22.623  0.1369E+02  0.2340E+03
     22.636  0.1423E+02  0.2342E+03
     22.648  0.1173E+02  0.2343E+03
     22.661  0.1320E+02  0.2345E+03
     22.673  0.1172E+02  0.2346E+03
     22.686  0.1097E+02  0.2348E+03
     22.698  0.1083E+02  0.2349E+03
     22.711  0.1375E+02  0.2351E+03
     22.723  0.1044E+02  0.2352E+03
     22.736  0.1098E+02  0.2353E+03
     22.748  0.1278E+02  0.2355E+03
     22.761  0.1507E+02  0.2357E+03
     22.773  0.1476E+02  0.2359E+03
     22.786  0.1277E+02  0.2360E+03
     22.798  0.9833E+01  0.2361E+03
     22.810  0.1094E+02  0.2363E+03
     22.823  0.1263E+02  0.2364E+03
     22.835  0.1174E+02  0.2366E+03
     22.848  0.5553E+01  0.2367E+03
     22.860  0.5257E+01  0.2367E+03
     22.873  0.8720E+01  0.2368E+03
     22.885  0.1211E+02  0.2370E+03
     22.898  0.1034E+02  0.2371E+03
     22.910  0.1174E+02  0.2373E+03
     22.923  0.1178E+02  0.2374E+03
     22.935  0.1032E+02  0.2375E+03
     22.948  0.8260E+01  0.2376E+03
     22.960  0.1187E+02  0.2378E+03
     22.973  0.1826E+02  0.2380E+03
     22.985  0.1489E+02  0.2382E+03
     22.998  0.1020E+02  0.2383E+03
     23.010  0.1070E+02  0.2385E+03
     23.023  0.1094E+02  0.2386E+03
     23.035  0.1176E+02  0.2387E+03
     23.047  0.1399E+02  0.2389E+03
     23.060  0.1203E+02  0.2391E+03
     23.072  0.8403E+01  0.2392E+03
     23.085  0.8840E+01  0.2393E+03
     23.097  0.7018E+01  0.2394E+03
     23.110  0.6381E+01  0.2394E+03
     23.122  0.7778E+01  0.2395E+03
     23.135  0.9883E+01  0.2397E+03
     23.147  0.1093E+02  0.2398E+03
     23.160  0.1311E+02  0.2400E+03
     23.172  0.1415E+02  0.2401E+03
     23.185  0.1324E+02  0.2403E+03
     23.197  0.1215E+02  0.2405E+03
     23.210  0.7264E+01  0.2405E+03
     23.222  0.4740E+01  0.2406E+03
     23.235  0.6111E+01  0.2407E+03
     23.247  0.8068E+01  0.2408E+03
     23.260  0.8175E+01  0.2409E+03
     23.272  0.1087E+02  0.2410E+03
     23.284  0.1378E+02  0.2412E+03
     23.297  0.1412E+02  0.2414E+03
     23.309  0.1487E+02  0.2416E+03
     23.322  0.1138E+02  0.2417E+03
     23.334  0.7717E+01  0.2418E+03
     23.347  0.9195E+01  0.2419E+03
     23.359  0.1093E+02  0.2420E+03
     23.372  0.9768E+01  0.2422E+03
     23.384  0.8673E+01  0.2423E+03
     23.397  0.1207E+02  0.2424E+03
     23.409  0.1572E+02  0.2426E+03
     23.422  0.1175E+02  0.2428E+03
     23.434  0.9397E+01  0.2429E+03
     23.447  0.1035E+02  0.2430E+03
     23.459  0.1493E+02  0.2432E+03
     23.472  0.1882E+02  0.2434E+03
     23.484  0.1564E+02  0.2436E+03
     23.497  0.1161E+02  0.2438E+03
     23.509  0.9292E+01  0.2439E+03
     23.521  0.1188E+02  0.2440E+03
     23.534  0.1272E+02  0.2442E+03
     23.546  0.1174E+02  0.2443E+03
     23.559  0.1010E+02  0.2445E+03
     23.571  0.1109E+02  0.2446E+03
     23.584  0.1713E+02  0.2448E+03
     23.596  0.1909E+02  0.2451E+03
     23.609  0.1319E+02  0.2452E+03
     23.621  0.1263E+02  0.2454E+03
     23.634  0.1570E+02  0.2456E+03
     23.646  0.1371E+02  0.2457E+03
     23.659  0.1086E+02  0.2459E+03
     23.671  0.1064E+02  0.2460E+03
     23.684  0.1021E+02  0.2461E+03
     23.696  0.8221E+01  0.2462E+03
     23.709  0.9724E+01  0.2464E+03
     23.721  0.1314E+02  0.2465E+03
     23.734  0.1372E+02  0.2467E+03
     23.746  0.1623E+02  0.2469E+03
     23.758  0.1484E+02  0.2471E+03
     23.771  0.1316E+02  0.2473E+03
     23.783  0.1017E+02  0.2474E+03
     23.796  0.8102E+01  0.2475E+03
     23.808  0.1016E+02  0.2476E+03
     23.821  0.1011E+02  0.2477E+03
     23.833  0.1178E+02  0.2479E+03
     23.846  0.1149E+02  0.2480E+03
     23.858  0.8989E+01  0.2481E+03
     23.871  0.1015E+02  0.2483E+03
     23.883  0.1037E+02  0.2484E+03
     23.896  0.1091E+02  0.2485E+03
     23.908  0.9134E+01  0.2486E+03
     23.921  0.1286E+02  0.2488E+03
     23.933  0.1471E+02  0.2490E+03
     23.946  0.1428E+02  0.2492E+03
     23.958  0.1209E+02  0.2493E+03
     23.971  0.1497E+02  0.2495E+03
     23.983  0.1850E+02  0.2497E+03
     23.996  0.1750E+02  0.2500E+03
     24.008  0.1504E+02  0.2501E+03
     24.020  0.1228E+02  0.2503E+03
     24.033  0.9099E+01  0.2504E+03
     24.045  0.1308E+02  0.2506E+03
     24.058  0.1342E+02  0.2507E+03
     24.070  0.1177E+02  0.2509E+03
     24.083  0.9612E+01  0.2510E+03
     24.095  0.1157E+02  0.2511E+03
     24.108  0.7741E+01  0.2512E+03
     24.120  0.7182E+01  0.2513E+03
     24.133  0.1079E+02  0.2515E+03
     24.145  0.1529E+02  0.2517E+03
     24.158  0.1332E+02  0.2518E+03
     24.170  0.1228E+02  0.2520E+03
     24.183  0.1439E+02  0.2522E+03
     24.195  0.1142E+02  0.2523E+03
     24.208  0.8284E+01  0.2524E+03
     24.220  0.9432E+01  0.2525E+03
     24.233  0.8765E+01  0.2526E+03
     24.245  0.9459E+01  0.2527E+03
     24.257  0.1113E+02  0.2529E+03
     24.270  0.7557E+01  0.2530E+03
     24.282  0.6072E+01  0.2531E+03
     24.295  0.5332E+01  0.2531E+03
     24.307  0.8187E+01  0.2532E+03
     24.320  0.8676E+01  0.2533E+03
     24.332  0.8388E+01  0.2534E+03
     24.345  0.8039E+01  0.2535E+03
     24.357  0.7090E+01  0.2536E+03
     24.370  0.5608E+01  0.2537E+03
     24.382  0.4300E+01  0.2538E+03
     24.395  0.5574E+01  0.2538E+03
     24.407  0.9698E+01  0.2539E+03
     24.420  0.1097E+02  0.2541E+03
     24.432  0.8162E+01  0.2542E+03
     24.445  0.7675E+01  0.2543E+03
     24.457  0.1046E+02  0.2544E+03
     24.470  0.9856E+01  0.2545E+03
     24.482  0.7385E+01  0.2546E+03
     24.494  0.6457E+01  0.2547E+03
     24.507  0.5913E+01  0.2548E+03
     24.519  0.5036E+01  0.2548E+03
     24.532  0.4923E+01  0.2549E+03
     24.544  0.5236E+01  0.2550E+03
     24.557  0.5075E+01  0.2550E+03
     24.569  0.3947E+01  0.2551E+03
     24.582  0.2749E+01  0.2551E+03
     24.594  0.2865E+01  0.2551E+03
     24.607  0.1596E+01  0.2552E+03
     24.619  0.2389E+01  0.2552E+03
     24.632  0.5037E+01  0.2553E+03
     24.644  0.6517E+01  0.2553E+03
     24.657  0.4668E+01  0.2554E+03
     24.669  0.5228E+01  0.2555E+03
     24.682  0.3340E+01  0.2555E+03
     24.694  0.1346E+01  0.2555E+03
     24.707  0.2902E+00  0.2555E+03
     24.719  0.1121E+01  0.2555E+03
     24.731  0.2007E+01  0.2556E+03
     24.744  0.1623E+01  0.2556E+03
     24.756  0.9278E+00  0.2556E+03
     24.769  0.1068E+01  0.2556E+03
     24.781  0.1796E+01  0.2556E+03
     24.794  0.1029E+01  0.2556E+03
     24.806  0.4471E+00  0.2557E+03
     24.819  0.7665E+00  0.2557E+03
     24.831  0.3347E+00  0.2557E+03
     24.844  0.2378E-01  0.2557E+03
     24.856  0.1353E-03  0.2557E+03
     24.869  0.4293E-07  0.2557E+03
     24.881  0.6724E-12  0.2557E+03
     24.894  0.5696E-16  0.2557E+03
     24.906  0.3968E-10  0.2557E+03
     24.919  0.1168E-05  0.2557E+03
     24.931  0.1772E-02  0.2557E+03
     24.944  0.1631E+00  0.2557E+03
     24.956  0.1313E+01  0.2557E+03
     24.968  0.1401E+01  0.2557E+03
     24.981  0.4839E+00  0.2557E+03
     24.993  0.2204E+01  0.2557E+03
     25.006  0.3898E+01  0.2558E+03
     25.018  0.2604E+01  0.2558E+03
     25.031  0.2007E+01  0.2558E+03
     25.043  0.2229E+01  0.2559E+03
     25.056  0.2909E+01  0.2559E+03
     25.068  0.2505E+01  0.2559E+03
     25.081  0.2175E+01  0.2560E+03
     25.093  0.1186E+01  0.2560E+03
     25.106  0.7588E+00  0.2560E+03
     25.118  0.7482E+00  0.2560E+03
     25.131  0.9091E-01  0.2560E+03
     25.143  0.8404E-03  0.2560E+03
     25.156  0.4473E-06  0.2560E+03
     25.168  0.1201E-10  0.2560E+03
     25.181  0.0000E+00  0.2560E+03
     25.193  0.0000E+00  0.2560E+03
     25.206  0.0000E+00  0.2560E+03
     25.218  0.0000E+00  0.2560E+03
     25.230  0.0000E+00  0.2560E+03
     25.243  0.0000E+00  0.2560E+03
     25.255  0.0000E+00  0.2560E+03
     25.268  0.0000E+00  0.2560E+03
     25.280  0.0000E+00  0.2560E+03
     25.293  0.0000E+00  0.2560E+03
     25.305  0.0000E+00  0.2560E+03
     25.318  0.0000E+00  0.2560E+03
     25.330  0.0000E+00  0.2560E+03
     25.343  0.0000E+00  0.2560E+03
     25.355  0.0000E+00  0.2560E+03
     25.368  0.0000E+00  0.2560E+03
     25.380  0.0000E+00  0.2560E+03
     25.393  0.0000E+00  0.2560E+03
     25.405  0.0000E+00  0.2560E+03
     25.418  0.0000E+00  0.2560E+03
     25.430  0.0000E+00  0.2560E+03
     25.443  0.0000E+00  0.2560E+03
     25.455  0.0000E+00  0.2560E+03
     25.467  0.0000E+00  0.2560E+03
     25.480  0.0000E+00  0.2560E+03
     25.492  0.0000E+00  0.2560E+03
     25.505  0.0000E+00  0.2560E+03
     25.517  0.0000E+00  0.2560E+03
     25.530  0.0000E+00  0.2560E+03
     25.542  0.0000E+00  0.2560E+03
     25.555  0.0000E+00  0.2560E+03
     25.567  0.0000E+00  0.2560E+03
     25.580  0.0000E+00  0.2560E+03
     25.592  0.0000E+00  0.2560E+03
     25.605  0.0000E+00  0.2560E+03
     25.617  0.0000E+00  0.2560E+03
     25.630  0.0000E+00  0.2560E+03
     25.642  0.0000E+00  0.2560E+03
     25.655  0.0000E+00  0.2560E+03
     25.667  0.0000E+00  0.2560E+03
     25.680  0.0000E+00  0.2560E+03
     25.692  0.0000E+00  0.2560E+03
     25.704  0.0000E+00  0.2560E+03
     25.717  0.0000E+00  0.2560E+03
     25.729  0.0000E+00  0.2560E+03
     25.742  0.0000E+00  0.2560E+03
     25.754  0.0000E+00  0.2560E+03
     25.767  0.0000E+00  0.2560E+03
     25.779  0.0000E+00  0.2560E+03
     25.792  0.0000E+00  0.2560E+03
     25.804  0.0000E+00  0.2560E+03
     25.817  0.0000E+00  0.2560E+03
     25.829  0.0000E+00  0.2560E+03
     25.842  0.0000E+00  0.2560E+03
     25.854  0.0000E+00  0.2560E+03
     25.867  0.0000E+00  0.2560E+03
     25.879  0.0000E+00  0.2560E+03
     25.892  0.0000E+00  0.2560E+03
     25.904  0.0000E+00  0.2560E+03
     25.917  0.0000E+00  0.2560E+03
     25.929  0.0000E+00  0.2560E+03
     25.941  0.0000E+00  0.2560E+03
     25.954  0.0000E+00  0.2560E+03
     25.966  0.0000E+00  0.2560E+03
     25.979  0.0000E+00  0.2560E+03
     25.991  0.0000E+00  0.2560E+03
     26.004  0.0000E+00  0.2560E+03
     26.016  0.0000E+00  0.2560E+03
     26.029  0.0000E+00  0.2560E+03
     26.041  0.0000E+00  0.2560E+03
     26.054  0.0000E+00  0.2560E+03
     26.066  0.0000E+00  0.2560E+03
     26.079  0.0000E+00  0.2560E+03
     26.091  0.0000E+00  0.2560E+03
     26.104  0.0000E+00  0.2560E+03
     26.116  0.0000E+00  0.2560E+03
     26.129  0.0000E+00  0.2560E+03
     26.141  0.0000E+00  0.2560E+03
     26.154  0.0000E+00  0.2560E+03
     26.166  0.0000E+00  0.2560E+03
     26.178  0.0000E+00  0.2560E+03
     26.191  0.0000E+00  0.2560E+03
     26.203  0.0000E+00  0.2560E+03
     26.216  0.0000E+00  0.2560E+03
     26.228  0.0000E+00  0.2560E+03
     26.241  0.0000E+00  0.2560E+03
     26.253  0.0000E+00  0.2560E+03
     26.266  0.0000E+00  0.2560E+03
     26.278  0.0000E+00  0.2560E+03
     26.291  0.0000E+00  0.2560E+03
     26.303  0.0000E+00  0.2560E+03
     26.316  0.0000E+00  0.2560E+03
     26.328  0.0000E+00  0.2560E+03
     26.341  0.0000E+00  0.2560E+03
     26.353  0.0000E+00  0.2560E+03
     26.366  0.0000E+00  0.2560E+03
     26.378  0.0000E+00  0.2560E+03
     26.391  0.0000E+00  0.2560E+03
     26.403  0.0000E+00  0.2560E+03
     26.416  0.0000E+00  0.2560E+03
     26.428  0.0000E+00  0.2560E+03
     26.440  0.0000E+00  0.2560E+03
     26.453  0.0000E+00  0.2560E+03
     26.465  0.0000E+00  0.2560E+03
     26.478  0.0000E+00  0.2560E+03
     26.490  0.0000E+00  0.2560E+03
     26.503  0.0000E+00  0.2560E+03
     26.515  0.0000E+00  0.2560E+03
     26.528  0.0000E+00  0.2560E+03
     26.540  0.0000E+00  0.2560E+03
     26.553  0.0000E+00  0.2560E+03
     26.565  0.0000E+00  0.2560E+03
     26.578  0.0000E+00  0.2560E+03
     26.590  0.0000E+00  0.2560E+03
     26.603  0.0000E+00  0.2560E+03
     26.615  0.0000E+00  0.2560E+03
     26.628  0.0000E+00  0.2560E+03
     26.640  0.0000E+00  0.2560E+03
     26.653  0.0000E+00  0.2560E+03
     26.665  0.0000E+00  0.2560E+03
     26.677  0.0000E+00  0.2560E+03
     26.690  0.0000E+00  0.2560E+03
     26.702  0.0000E+00  0.2560E+03
     26.715  0.0000E+00  0.2560E+03
     26.727  0.0000E+00  0.2560E+03
     26.740  0.0000E+00  0.2560E+03
     26.752  0.0000E+00  0.2560E+03
     26.765  0.0000E+00  0.2560E+03
     26.777  0.0000E+00  0.2560E+03
     26.790  0.0000E+00  0.2560E+03
     26.802  0.0000E+00  0.2560E+03
     26.815  0.0000E+00  0.2560E+03
     26.827  0.0000E+00  0.2560E+03
     26.840  0.0000E+00  0.2560E+03
     26.852  0.0000E+00  0.2560E+03
     26.865  0.0000E+00  0.2560E+03
     26.877  0.0000E+00  0.2560E+03
     26.890  0.0000E+00  0.2560E+03
     26.902  0.0000E+00  0.2560E+03
     26.914  0.0000E+00  0.2560E+03
     26.927  0.0000E+00  0.2560E+03
     26.939  0.0000E+00  0.2560E+03
     26.952  0.0000E+00  0.2560E+03
     26.964  0.0000E+00  0.2560E+03
     26.977  0.0000E+00  0.2560E+03
     26.989  0.0000E+00  0.2560E+03
     27.002  0.0000E+00  0.2560E+03
     27.014  0.0000E+00  0.2560E+03
     27.027  0.0000E+00  0.2560E+03
     27.039  0.0000E+00  0.2560E+03
     27.052  0.0000E+00  0.2560E+03
     27.064  0.0000E+00  0.2560E+03
     27.077  0.0000E+00  0.2560E+03
     27.089  0.0000E+00  0.2560E+03
     27.102  0.0000E+00  0.2560E+03
     27.114  0.0000E+00  0.2560E+03
     27.127  0.0000E+00  0.2560E+03
     27.139  0.0000E+00  0.2560E+03
     27.151  0.0000E+00  0.2560E+03
     27.164  0.0000E+00  0.2560E+03
     27.176  0.0000E+00  0.2560E+03
     27.189  0.0000E+00  0.2560E+03
     27.201  0.0000E+00  0.2560E+03
     27.214  0.0000E+00  0.2560E+03
     27.226  0.0000E+00  0.2560E+03
     27.239  0.0000E+00  0.2560E+03
     27.251  0.0000E+00  0.2560E+03
     27.264  0.0000E+00  0.2560E+03
     27.276  0.0000E+00  0.2560E+03
     27.289  0.0000E+00  0.2560E+03
     27.301  0.0000E+00  0.2560E+03
     27.314  0.0000E+00  0.2560E+03
     27.326  0.0000E+00  0.2560E+03
     27.339  0.0000E+00  0.2560E+03
     27.351  0.0000E+00  0.2560E+03
     27.364  0.0000E+00  0.2560E+03
     27.376  0.0000E+00  0.2560E+03
