  15  15   0   0
  0.2033749E+02  0.4846000E-09  0.4846000E-09  0.1500000E-08  0.5000000E-15
  1.000000000000000E-004
  CAR 
 Dielectric                              
     32.66816036    -25.52867803 4000     -0.43865886      1.00000000
    -25.529  0.0000E+00  0.0000E+00
    -25.514  0.0000E+00  0.0000E+00
    -25.500  0.0000E+00  0.0000E+00
    -25.485  0.0000E+00  0.0000E+00
    -25.470  0.0000E+00  0.0000E+00
    -25.456  0.0000E+00  0.0000E+00
    -25.441  0.0000E+00  0.0000E+00
    -25.427  0.0000E+00  0.0000E+00
    -25.412  0.0000E+00  0.0000E+00
    -25.398  0.0000E+00  0.0000E+00
    -25.383  0.0000E+00  0.0000E+00
    -25.369  0.0000E+00  0.0000E+00
    -25.354  0.0000E+00  0.0000E+00
    -25.339  0.0000E+00  0.0000E+00
    -25.325  0.0000E+00  0.0000E+00
    -25.310  0.0000E+00  0.0000E+00
    -25.296  0.0000E+00  0.0000E+00
    -25.281  0.0000E+00  0.0000E+00
    -25.267  0.0000E+00  0.0000E+00
    -25.252  0.0000E+00  0.0000E+00
    -25.238  0.0000E+00  0.0000E+00
    -25.223  0.0000E+00  0.0000E+00
    -25.209  0.0000E+00  0.0000E+00
    -25.194  0.0000E+00  0.0000E+00
    -25.179  0.0000E+00  0.0000E+00
    -25.165  0.0000E+00  0.0000E+00
    -25.150  0.0000E+00  0.0000E+00
    -25.136  0.0000E+00  0.0000E+00
    -25.121  0.0000E+00  0.0000E+00
    -25.107  0.0000E+00  0.0000E+00
    -25.092  0.0000E+00  0.0000E+00
    -25.078  0.0000E+00  0.0000E+00
    -25.063  0.0000E+00  0.0000E+00
    -25.048  0.0000E+00  0.0000E+00
    -25.034  0.0000E+00  0.0000E+00
    -25.019  0.0000E+00  0.0000E+00
    -25.005  0.0000E+00  0.0000E+00
    -24.990  0.0000E+00  0.0000E+00
    -24.976  0.0000E+00  0.0000E+00
    -24.961  0.0000E+00  0.0000E+00
    -24.947  0.0000E+00  0.0000E+00
    -24.932  0.0000E+00  0.0000E+00
    -24.917  0.0000E+00  0.0000E+00
    -24.903  0.0000E+00  0.0000E+00
    -24.888  0.0000E+00  0.0000E+00
    -24.874  0.0000E+00  0.0000E+00
    -24.859  0.0000E+00  0.0000E+00
    -24.845  0.0000E+00  0.0000E+00
    -24.830  0.0000E+00  0.0000E+00
    -24.816  0.0000E+00  0.0000E+00
    -24.801  0.0000E+00  0.0000E+00
    -24.786  0.0000E+00  0.0000E+00
    -24.772  0.0000E+00  0.0000E+00
    -24.757  0.0000E+00  0.0000E+00
    -24.743  0.0000E+00  0.0000E+00
    -24.728  0.0000E+00  0.0000E+00
    -24.714  0.0000E+00  0.0000E+00
    -24.699  0.0000E+00  0.0000E+00
    -24.685  0.0000E+00  0.0000E+00
    -24.670  0.0000E+00  0.0000E+00
    -24.656  0.0000E+00  0.0000E+00
    -24.641  0.0000E+00  0.0000E+00
    -24.626  0.0000E+00  0.0000E+00
    -24.612  0.0000E+00  0.0000E+00
    -24.597  0.0000E+00  0.0000E+00
    -24.583  0.0000E+00  0.0000E+00
    -24.568  0.0000E+00  0.0000E+00
    -24.554  0.0000E+00  0.0000E+00
    -24.539  0.0000E+00  0.0000E+00
    -24.525  0.0000E+00  0.0000E+00
    -24.510  0.0000E+00  0.0000E+00
    -24.495  0.0000E+00  0.0000E+00
    -24.481  0.0000E+00  0.0000E+00
    -24.466  0.0000E+00  0.0000E+00
    -24.452  0.0000E+00  0.0000E+00
    -24.437  0.0000E+00  0.0000E+00
    -24.423  0.0000E+00  0.0000E+00
    -24.408  0.0000E+00  0.0000E+00
    -24.394  0.0000E+00  0.0000E+00
    -24.379  0.0000E+00  0.0000E+00
    -24.364  0.0000E+00  0.0000E+00
    -24.350  0.0000E+00  0.0000E+00
    -24.335  0.0000E+00  0.0000E+00
    -24.321  0.0000E+00  0.0000E+00
    -24.306  0.0000E+00  0.0000E+00
    -24.292  0.0000E+00  0.0000E+00
    -24.277  0.0000E+00  0.0000E+00
    -24.263  0.0000E+00  0.0000E+00
    -24.248  0.0000E+00  0.0000E+00
    -24.233  0.0000E+00  0.0000E+00
    -24.219  0.0000E+00  0.0000E+00
    -24.204  0.0000E+00  0.0000E+00
    -24.190  0.0000E+00  0.0000E+00
    -24.175  0.0000E+00  0.0000E+00
    -24.161  0.0000E+00  0.0000E+00
    -24.146  0.0000E+00  0.0000E+00
    -24.132  0.0000E+00  0.0000E+00
    -24.117  0.0000E+00  0.0000E+00
    -24.102  0.0000E+00  0.0000E+00
    -24.088  0.0000E+00  0.0000E+00
    -24.073  0.0000E+00  0.0000E+00
    -24.059  0.0000E+00  0.0000E+00
    -24.044  0.0000E+00  0.0000E+00
    -24.030  0.0000E+00  0.0000E+00
    -24.015  0.0000E+00  0.0000E+00
    -24.001  0.0000E+00  0.0000E+00
    -23.986  0.0000E+00  0.0000E+00
    -23.972  0.0000E+00  0.0000E+00
    -23.957  0.0000E+00  0.0000E+00
    -23.942  0.0000E+00  0.0000E+00
    -23.928  0.0000E+00  0.0000E+00
    -23.913  0.0000E+00  0.0000E+00
    -23.899  0.0000E+00  0.0000E+00
    -23.884  0.0000E+00  0.0000E+00
    -23.870  0.0000E+00  0.0000E+00
    -23.855  0.0000E+00  0.0000E+00
    -23.841  0.0000E+00  0.0000E+00
    -23.826  0.0000E+00  0.0000E+00
    -23.811  0.0000E+00  0.0000E+00
    -23.797  0.0000E+00  0.0000E+00
    -23.782  0.0000E+00  0.0000E+00
    -23.768  0.0000E+00  0.0000E+00
    -23.753  0.0000E+00  0.0000E+00
    -23.739  0.0000E+00  0.0000E+00
    -23.724  0.0000E+00  0.0000E+00
    -23.710  0.0000E+00  0.0000E+00
    -23.695  0.0000E+00  0.0000E+00
    -23.680  0.0000E+00  0.0000E+00
    -23.666  0.0000E+00  0.0000E+00
    -23.651  0.0000E+00  0.0000E+00
    -23.637  0.0000E+00  0.0000E+00
    -23.622  0.0000E+00  0.0000E+00
    -23.608  0.0000E+00  0.0000E+00
    -23.593  0.0000E+00  0.0000E+00
    -23.579  0.0000E+00  0.0000E+00
    -23.564  0.0000E+00  0.0000E+00
    -23.549  0.0000E+00  0.0000E+00
    -23.535  0.0000E+00  0.0000E+00
    -23.520  0.0000E+00  0.0000E+00
    -23.506  0.0000E+00  0.0000E+00
    -23.491  0.0000E+00  0.0000E+00
    -23.477  0.0000E+00  0.0000E+00
    -23.462  0.0000E+00  0.0000E+00
    -23.448  0.0000E+00  0.0000E+00
    -23.433  0.0000E+00  0.0000E+00
    -23.419  0.0000E+00  0.0000E+00
    -23.404  0.0000E+00  0.0000E+00
    -23.389  0.0000E+00  0.0000E+00
    -23.375  0.0000E+00  0.0000E+00
    -23.360  0.0000E+00  0.0000E+00
    -23.346  0.0000E+00  0.0000E+00
    -23.331  0.0000E+00  0.0000E+00
    -23.317  0.0000E+00  0.0000E+00
    -23.302  0.0000E+00  0.0000E+00
    -23.288  0.0000E+00  0.0000E+00
    -23.273  0.0000E+00  0.0000E+00
    -23.258  0.0000E+00  0.0000E+00
    -23.244  0.0000E+00  0.0000E+00
    -23.229  0.0000E+00  0.0000E+00
    -23.215  0.0000E+00  0.0000E+00
    -23.200  0.0000E+00  0.0000E+00
    -23.186  0.0000E+00  0.0000E+00
    -23.171  0.0000E+00  0.0000E+00
    -23.157  0.0000E+00  0.0000E+00
    -23.142  0.0000E+00  0.0000E+00
    -23.127  0.0000E+00  0.0000E+00
    -23.113  0.0000E+00  0.0000E+00
    -23.098  0.0000E+00  0.0000E+00
    -23.084  0.0000E+00  0.0000E+00
    -23.069  0.0000E+00  0.0000E+00
    -23.055  0.0000E+00  0.0000E+00
    -23.040  0.0000E+00  0.0000E+00
    -23.026  0.0000E+00  0.0000E+00
    -23.011  0.0000E+00  0.0000E+00
    -22.996  0.0000E+00  0.0000E+00
    -22.982  0.0000E+00  0.0000E+00
    -22.967  0.0000E+00  0.0000E+00
    -22.953  0.0000E+00  0.0000E+00
    -22.938  0.6273E-13  0.9129E-15
    -22.924  0.8805E-07  0.1281E-08
    -22.909  0.2014E-02  0.2932E-04
    -22.895  0.8513E+00  0.1242E-01
    -22.880  0.9531E+01  0.1511E+00
    -22.866  0.4798E+01  0.2209E+00
    -22.851  0.8809E-01  0.2222E+00
    -22.836  0.3484E-04  0.2222E+00
    -22.822  0.2363E-09  0.2222E+00
    -22.807  0.0000E+00  0.2222E+00
    -22.793  0.0000E+00  0.2222E+00
    -22.778  0.0000E+00  0.2222E+00
    -22.764  0.0000E+00  0.2222E+00
    -22.749  0.0000E+00  0.2222E+00
    -22.735  0.0000E+00  0.2222E+00
    -22.720  0.0000E+00  0.2222E+00
    -22.705  0.0000E+00  0.2222E+00
    -22.691  0.0000E+00  0.2222E+00
    -22.676  0.0000E+00  0.2222E+00
    -22.662  0.0000E+00  0.2222E+00
    -22.647  0.0000E+00  0.2222E+00
    -22.633  0.0000E+00  0.2222E+00
    -22.618  0.0000E+00  0.2222E+00
    -22.604  0.0000E+00  0.2222E+00
    -22.589  0.0000E+00  0.2222E+00
    -22.574  0.0000E+00  0.2222E+00
    -22.560  0.0000E+00  0.2222E+00
    -22.545  0.0000E+00  0.2222E+00
    -22.531  0.0000E+00  0.2222E+00
    -22.516  0.0000E+00  0.2222E+00
    -22.502  0.0000E+00  0.2222E+00
    -22.487  0.0000E+00  0.2222E+00
    -22.473  0.0000E+00  0.2222E+00
    -22.458  0.0000E+00  0.2222E+00
    -22.443  0.0000E+00  0.2222E+00
    -22.429  0.0000E+00  0.2222E+00
    -22.414  0.0000E+00  0.2222E+00
    -22.400  0.0000E+00  0.2222E+00
    -22.385  0.0000E+00  0.2222E+00
    -22.371  0.0000E+00  0.2222E+00
    -22.356  0.0000E+00  0.2222E+00
    -22.342  0.0000E+00  0.2222E+00
    -22.327  0.0000E+00  0.2222E+00
    -22.312  0.0000E+00  0.2222E+00
    -22.298  0.0000E+00  0.2222E+00
    -22.283  0.0000E+00  0.2222E+00
    -22.269  0.0000E+00  0.2222E+00
    -22.254  0.0000E+00  0.2222E+00
    -22.240  0.0000E+00  0.2222E+00
    -22.225  0.0000E+00  0.2222E+00
    -22.211  0.0000E+00  0.2222E+00
    -22.196  0.2662E-09  0.2222E+00
    -22.182  0.6297E-04  0.2222E+00
    -22.167  0.2544E+00  0.2259E+00
    -22.152  0.2142E+02  0.5377E+00
    -22.138  0.6166E+02  0.1435E+01
    -22.123  0.8247E+01  0.1555E+01
    -22.109  0.3149E-01  0.1556E+01
    -22.094  0.2300E-05  0.1556E+01
    -22.080  0.2777E-11  0.1556E+01
    -22.065  0.0000E+00  0.1556E+01
    -22.051  0.0000E+00  0.1556E+01
    -22.036  0.0000E+00  0.1556E+01
    -22.021  0.0000E+00  0.1556E+01
    -22.007  0.0000E+00  0.1556E+01
    -21.992  0.0000E+00  0.1556E+01
    -21.978  0.0000E+00  0.1556E+01
    -21.963  0.0000E+00  0.1556E+01
    -21.949  0.0000E+00  0.1556E+01
    -21.934  0.0000E+00  0.1556E+01
    -21.920  0.0000E+00  0.1556E+01
    -21.905  0.0000E+00  0.1556E+01
    -21.890  0.0000E+00  0.1556E+01
    -21.876  0.0000E+00  0.1556E+01
    -21.861  0.0000E+00  0.1556E+01
    -21.847  0.0000E+00  0.1556E+01
    -21.832  0.0000E+00  0.1556E+01
    -21.818  0.0000E+00  0.1556E+01
    -21.803  0.0000E+00  0.1556E+01
    -21.789  0.0000E+00  0.1556E+01
    -21.774  0.0000E+00  0.1556E+01
    -21.759  0.0000E+00  0.1556E+01
    -21.745  0.0000E+00  0.1556E+01
    -21.730  0.0000E+00  0.1556E+01
    -21.716  0.0000E+00  0.1556E+01
    -21.701  0.0000E+00  0.1556E+01
    -21.687  0.0000E+00  0.1556E+01
    -21.672  0.0000E+00  0.1556E+01
    -21.658  0.0000E+00  0.1556E+01
    -21.643  0.0000E+00  0.1556E+01
    -21.629  0.0000E+00  0.1556E+01
    -21.614  0.0000E+00  0.1556E+01
    -21.599  0.0000E+00  0.1556E+01
    -21.585  0.0000E+00  0.1556E+01
    -21.570  0.0000E+00  0.1556E+01
    -21.556  0.0000E+00  0.1556E+01
    -21.541  0.0000E+00  0.1556E+01
    -21.527  0.0000E+00  0.1556E+01
    -21.512  0.0000E+00  0.1556E+01
    -21.498  0.0000E+00  0.1556E+01
    -21.483  0.0000E+00  0.1556E+01
    -21.468  0.0000E+00  0.1556E+01
    -21.454  0.0000E+00  0.1556E+01
    -21.439  0.0000E+00  0.1556E+01
    -21.425  0.0000E+00  0.1556E+01
    -21.410  0.0000E+00  0.1556E+01
    -21.396  0.0000E+00  0.1556E+01
    -21.381  0.0000E+00  0.1556E+01
    -21.367  0.0000E+00  0.1556E+01
    -21.352  0.0000E+00  0.1556E+01
    -21.337  0.0000E+00  0.1556E+01
    -21.323  0.0000E+00  0.1556E+01
    -21.308  0.0000E+00  0.1556E+01
    -21.294  0.0000E+00  0.1556E+01
    -21.279  0.0000E+00  0.1556E+01
    -21.265  0.0000E+00  0.1556E+01
    -21.250  0.0000E+00  0.1556E+01
    -21.236  0.0000E+00  0.1556E+01
    -21.221  0.0000E+00  0.1556E+01
    -21.206  0.0000E+00  0.1556E+01
    -21.192  0.0000E+00  0.1556E+01
    -21.177  0.0000E+00  0.1556E+01
    -21.163  0.0000E+00  0.1556E+01
    -21.148  0.0000E+00  0.1556E+01
    -21.134  0.0000E+00  0.1556E+01
    -21.119  0.0000E+00  0.1556E+01
    -21.105  0.0000E+00  0.1556E+01
    -21.090  0.0000E+00  0.1556E+01
    -21.076  0.0000E+00  0.1556E+01
    -21.061  0.0000E+00  0.1556E+01
    -21.046  0.0000E+00  0.1556E+01
    -21.032  0.0000E+00  0.1556E+01
    -21.017  0.0000E+00  0.1556E+01
    -21.003  0.0000E+00  0.1556E+01
    -20.988  0.0000E+00  0.1556E+01
    -20.974  0.0000E+00  0.1556E+01
    -20.959  0.0000E+00  0.1556E+01
    -20.945  0.0000E+00  0.1556E+01
    -20.930  0.0000E+00  0.1556E+01
    -20.915  0.0000E+00  0.1556E+01
    -20.901  0.0000E+00  0.1556E+01
    -20.886  0.0000E+00  0.1556E+01
    -20.872  0.0000E+00  0.1556E+01
    -20.857  0.0000E+00  0.1556E+01
    -20.843  0.0000E+00  0.1556E+01
    -20.828  0.0000E+00  0.1556E+01
    -20.814  0.0000E+00  0.1556E+01
    -20.799  0.0000E+00  0.1556E+01
    -20.784  0.0000E+00  0.1556E+01
    -20.770  0.0000E+00  0.1556E+01
    -20.755  0.0000E+00  0.1556E+01
    -20.741  0.1808E-08  0.1556E+01
    -20.726  0.1894E-03  0.1556E+01
    -20.712  0.3853E+00  0.1561E+01
    -20.697  0.2197E+02  0.1881E+01
    -20.683  0.5969E+02  0.2750E+01
    -20.668  0.9517E+01  0.2888E+01
    -20.653  0.5457E-01  0.2889E+01
    -20.639  0.6835E-05  0.2889E+01
    -20.624  0.1505E-10  0.2889E+01
    -20.610  0.0000E+00  0.2889E+01
    -20.595  0.0000E+00  0.2889E+01
    -20.581  0.0000E+00  0.2889E+01
    -20.566  0.0000E+00  0.2889E+01
    -20.552  0.0000E+00  0.2889E+01
    -20.537  0.0000E+00  0.2889E+01
    -20.522  0.0000E+00  0.2889E+01
    -20.508  0.0000E+00  0.2889E+01
    -20.493  0.0000E+00  0.2889E+01
    -20.479  0.0000E+00  0.2889E+01
    -20.464  0.0000E+00  0.2889E+01
    -20.450  0.0000E+00  0.2889E+01
    -20.435  0.0000E+00  0.2889E+01
    -20.421  0.0000E+00  0.2889E+01
    -20.406  0.0000E+00  0.2889E+01
    -20.392  0.0000E+00  0.2889E+01
    -20.377  0.0000E+00  0.2889E+01
    -20.362  0.0000E+00  0.2889E+01
    -20.348  0.0000E+00  0.2889E+01
    -20.333  0.0000E+00  0.2889E+01
    -20.319  0.0000E+00  0.2889E+01
    -20.304  0.0000E+00  0.2889E+01
    -20.290  0.0000E+00  0.2889E+01
    -20.275  0.0000E+00  0.2889E+01
    -20.261  0.0000E+00  0.2889E+01
    -20.246  0.0000E+00  0.2889E+01
    -20.231  0.0000E+00  0.2889E+01
    -20.217  0.0000E+00  0.2889E+01
    -20.202  0.0000E+00  0.2889E+01
    -20.188  0.0000E+00  0.2889E+01
    -20.173  0.0000E+00  0.2889E+01
    -20.159  0.0000E+00  0.2889E+01
    -20.144  0.0000E+00  0.2889E+01
    -20.130  0.0000E+00  0.2889E+01
    -20.115  0.0000E+00  0.2889E+01
    -20.100  0.0000E+00  0.2889E+01
    -20.086  0.0000E+00  0.2889E+01
    -20.071  0.0000E+00  0.2889E+01
    -20.057  0.0000E+00  0.2889E+01
    -20.042  0.0000E+00  0.2889E+01
    -20.028  0.5510E-12  0.2889E+01
    -20.013  0.6578E-06  0.2889E+01
    -19.999  0.1337E-01  0.2889E+01
    -19.984  0.5261E+01  0.2966E+01
    -19.969  0.5717E+02  0.3798E+01
    -19.955  0.2864E+02  0.4214E+01
    -19.940  0.5366E+00  0.4222E+01
    -19.926  0.2231E-03  0.4222E+01
    -19.911  0.1630E-08  0.4222E+01
    -19.897  0.0000E+00  0.4222E+01
    -19.882  0.0000E+00  0.4222E+01
    -19.868  0.0000E+00  0.4222E+01
    -19.853  0.0000E+00  0.4222E+01
    -19.839  0.0000E+00  0.4222E+01
    -19.824  0.0000E+00  0.4222E+01
    -19.809  0.0000E+00  0.4222E+01
    -19.795  0.0000E+00  0.4222E+01
    -19.780  0.0000E+00  0.4222E+01
    -19.766  0.0000E+00  0.4222E+01
    -19.751  0.0000E+00  0.4222E+01
    -19.737  0.0000E+00  0.4222E+01
    -19.722  0.0000E+00  0.4222E+01
    -19.708  0.2579E-10  0.4222E+01
    -19.693  0.7208E-05  0.4222E+01
    -19.678  0.3391E-01  0.4223E+01
    -19.664  0.3260E+01  0.4270E+01
    -19.649  0.1042E+02  0.4422E+01
    -19.635  0.1548E+01  0.4444E+01
    -19.620  0.6645E-02  0.4444E+01
    -19.606  0.5456E-06  0.4444E+01
    -19.591  0.7375E-12  0.4444E+01
    -19.577  0.0000E+00  0.4444E+01
    -19.562  0.0000E+00  0.4444E+01
    -19.547  0.0000E+00  0.4444E+01
    -19.533  0.0000E+00  0.4444E+01
    -19.518  0.0000E+00  0.4444E+01
    -19.504  0.0000E+00  0.4444E+01
    -19.489  0.0000E+00  0.4444E+01
    -19.475  0.0000E+00  0.4444E+01
    -19.460  0.0000E+00  0.4444E+01
    -19.446  0.0000E+00  0.4444E+01
    -19.431  0.0000E+00  0.4444E+01
    -19.416  0.0000E+00  0.4444E+01
    -19.402  0.0000E+00  0.4444E+01
    -19.387  0.0000E+00  0.4444E+01
    -19.373  0.0000E+00  0.4444E+01
    -19.358  0.0000E+00  0.4444E+01
    -19.344  0.0000E+00  0.4444E+01
    -19.329  0.0000E+00  0.4444E+01
    -19.315  0.0000E+00  0.4444E+01
    -19.300  0.0000E+00  0.4444E+01
    -19.286  0.0000E+00  0.4444E+01
    -19.271  0.0000E+00  0.4444E+01
    -19.256  0.7651E-11  0.4444E+01
    -19.242  0.4892E-05  0.4444E+01
    -19.227  0.5163E-01  0.4445E+01
    -19.213  0.1052E+02  0.4598E+01
    -19.198  0.6318E+02  0.5518E+01
    -19.184  0.1771E+02  0.5775E+01
    -19.169  0.1616E+00  0.5778E+01
    -19.155  0.2980E-04  0.5778E+01
    -19.140  0.9216E-10  0.5778E+01
    -19.125  0.0000E+00  0.5778E+01
    -19.111  0.0000E+00  0.5778E+01
    -19.096  0.0000E+00  0.5778E+01
    -19.082  0.0000E+00  0.5778E+01
    -19.067  0.0000E+00  0.5778E+01
    -19.053  0.0000E+00  0.5778E+01
    -19.038  0.0000E+00  0.5778E+01
    -19.024  0.0000E+00  0.5778E+01
    -19.009  0.0000E+00  0.5778E+01
    -18.994  0.0000E+00  0.5778E+01
    -18.980  0.0000E+00  0.5778E+01
    -18.965  0.0000E+00  0.5778E+01
    -18.951  0.0000E+00  0.5778E+01
    -18.936  0.0000E+00  0.5778E+01
    -18.922  0.0000E+00  0.5778E+01
    -18.907  0.1787E-08  0.5778E+01
    -18.893  0.1770E-03  0.5778E+01
    -18.878  0.3047E+00  0.5782E+01
    -18.863  0.1173E+02  0.5953E+01
    -18.849  0.1738E+02  0.6206E+01
    -18.834  0.1122E+01  0.6222E+01
    -18.820  0.1824E-02  0.6222E+01
    -18.805  0.5375E-07  0.6222E+01
    -18.791  0.2712E-13  0.6222E+01
    -18.776  0.0000E+00  0.6222E+01
    -18.762  0.0000E+00  0.6222E+01
    -18.747  0.0000E+00  0.6222E+01
    -18.732  0.0000E+00  0.6222E+01
    -18.718  0.0000E+00  0.6222E+01
    -18.703  0.0000E+00  0.6222E+01
    -18.689  0.0000E+00  0.6222E+01
    -18.674  0.0000E+00  0.6222E+01
    -18.660  0.0000E+00  0.6222E+01
    -18.645  0.0000E+00  0.6222E+01
    -18.631  0.0000E+00  0.6222E+01
    -18.616  0.0000E+00  0.6222E+01
    -18.602  0.0000E+00  0.6222E+01
    -18.587  0.0000E+00  0.6222E+01
    -18.572  0.0000E+00  0.6222E+01
    -18.558  0.0000E+00  0.6222E+01
    -18.543  0.0000E+00  0.6222E+01
    -18.529  0.0000E+00  0.6222E+01
    -18.514  0.0000E+00  0.6222E+01
    -18.500  0.0000E+00  0.6222E+01
    -18.485  0.0000E+00  0.6222E+01
    -18.471  0.0000E+00  0.6222E+01
    -18.456  0.0000E+00  0.6222E+01
    -18.441  0.0000E+00  0.6222E+01
    -18.427  0.0000E+00  0.6222E+01
    -18.412  0.0000E+00  0.6222E+01
    -18.398  0.0000E+00  0.6222E+01
    -18.383  0.0000E+00  0.6222E+01
    -18.369  0.0000E+00  0.6222E+01
    -18.354  0.0000E+00  0.6222E+01
    -18.340  0.0000E+00  0.6222E+01
    -18.325  0.0000E+00  0.6222E+01
    -18.310  0.0000E+00  0.6222E+01
    -18.296  0.0000E+00  0.6222E+01
    -18.281  0.0000E+00  0.6222E+01
    -18.267  0.0000E+00  0.6222E+01
    -18.252  0.0000E+00  0.6222E+01
    -18.238  0.0000E+00  0.6222E+01
    -18.223  0.0000E+00  0.6222E+01
    -18.209  0.0000E+00  0.6222E+01
    -18.194  0.0000E+00  0.6222E+01
    -18.179  0.0000E+00  0.6222E+01
    -18.165  0.0000E+00  0.6222E+01
    -18.150  0.0000E+00  0.6222E+01
    -18.136  0.0000E+00  0.6222E+01
    -18.121  0.0000E+00  0.6222E+01
    -18.107  0.0000E+00  0.6222E+01
    -18.092  0.0000E+00  0.6222E+01
    -18.078  0.0000E+00  0.6222E+01
    -18.063  0.0000E+00  0.6222E+01
    -18.049  0.0000E+00  0.6222E+01
    -18.034  0.0000E+00  0.6222E+01
    -18.019  0.0000E+00  0.6222E+01
    -18.005  0.0000E+00  0.6222E+01
    -17.990  0.0000E+00  0.6222E+01
    -17.976  0.0000E+00  0.6222E+01
    -17.961  0.0000E+00  0.6222E+01
    -17.947  0.0000E+00  0.6222E+01
    -17.932  0.7035E-08  0.6222E+01
    -17.918  0.6580E-03  0.6222E+01
    -17.903  0.1192E+01  0.6240E+01
    -17.888  0.5608E+02  0.7056E+01
    -17.874  0.1139E+03  0.8713E+01
    -17.859  0.1204E+02  0.8888E+01
    -17.845  0.4050E-01  0.8889E+01
    -17.830  0.2871E-05  0.8889E+01
    -17.816  0.3570E-11  0.8889E+01
    -17.801  0.0000E+00  0.8889E+01
    -17.787  0.0000E+00  0.8889E+01
    -17.772  0.0000E+00  0.8889E+01
    -17.757  0.0000E+00  0.8889E+01
    -17.743  0.0000E+00  0.8889E+01
    -17.728  0.0000E+00  0.8889E+01
    -17.714  0.0000E+00  0.8889E+01
    -17.699  0.0000E+00  0.8889E+01
    -17.685  0.0000E+00  0.8889E+01
    -17.670  0.0000E+00  0.8889E+01
    -17.656  0.0000E+00  0.8889E+01
    -17.641  0.0000E+00  0.8889E+01
    -17.626  0.0000E+00  0.8889E+01
    -17.612  0.0000E+00  0.8889E+01
    -17.597  0.0000E+00  0.8889E+01
    -17.583  0.0000E+00  0.8889E+01
    -17.568  0.0000E+00  0.8889E+01
    -17.554  0.0000E+00  0.8889E+01
    -17.539  0.0000E+00  0.8889E+01
    -17.525  0.0000E+00  0.8889E+01
    -17.510  0.0000E+00  0.8889E+01
    -17.496  0.0000E+00  0.8889E+01
    -17.481  0.0000E+00  0.8889E+01
    -17.466  0.0000E+00  0.8889E+01
    -17.452  0.0000E+00  0.8889E+01
    -17.437  0.0000E+00  0.8889E+01
    -17.423  0.0000E+00  0.8889E+01
    -17.408  0.0000E+00  0.8889E+01
    -17.394  0.0000E+00  0.8889E+01
    -17.379  0.0000E+00  0.8889E+01
    -17.365  0.0000E+00  0.8889E+01
    -17.350  0.0000E+00  0.8889E+01
    -17.335  0.0000E+00  0.8889E+01
    -17.321  0.0000E+00  0.8889E+01
    -17.306  0.0000E+00  0.8889E+01
    -17.292  0.0000E+00  0.8889E+01
    -17.277  0.0000E+00  0.8889E+01
    -17.263  0.0000E+00  0.8889E+01
    -17.248  0.0000E+00  0.8889E+01
    -17.234  0.0000E+00  0.8889E+01
    -17.219  0.0000E+00  0.8889E+01
    -17.204  0.0000E+00  0.8889E+01
    -17.190  0.0000E+00  0.8889E+01
    -17.175  0.0000E+00  0.8889E+01
    -17.161  0.0000E+00  0.8889E+01
    -17.146  0.0000E+00  0.8889E+01
    -17.132  0.0000E+00  0.8889E+01
    -17.117  0.0000E+00  0.8889E+01
    -17.103  0.0000E+00  0.8889E+01
    -17.088  0.0000E+00  0.8889E+01
    -17.073  0.0000E+00  0.8889E+01
    -17.059  0.0000E+00  0.8889E+01
    -17.044  0.0000E+00  0.8889E+01
    -17.030  0.0000E+00  0.8889E+01
    -17.015  0.0000E+00  0.8889E+01
    -17.001  0.9382E-10  0.8889E+01
    -16.986  0.2107E-04  0.8889E+01
    -16.972  0.8286E-01  0.8890E+01
    -16.957  0.6988E+01  0.8992E+01
    -16.942  0.2070E+02  0.9293E+01
    -16.928  0.8333E+01  0.9414E+01
    -16.913  0.9042E+01  0.9546E+01
    -16.899  0.6595E+00  0.9556E+01
    -16.884  0.1236E-02  0.9556E+01
    -16.870  0.4229E-07  0.9556E+01
    -16.855  0.2373E-13  0.9556E+01
    -16.841  0.0000E+00  0.9556E+01
    -16.826  0.0000E+00  0.9556E+01
    -16.812  0.0000E+00  0.9556E+01
    -16.797  0.0000E+00  0.9556E+01
    -16.782  0.0000E+00  0.9556E+01
    -16.768  0.0000E+00  0.9556E+01
    -16.753  0.0000E+00  0.9556E+01
    -16.739  0.0000E+00  0.9556E+01
    -16.724  0.0000E+00  0.9556E+01
    -16.710  0.0000E+00  0.9556E+01
    -16.695  0.0000E+00  0.9556E+01
    -16.681  0.3175E-08  0.9556E+01
    -16.666  0.2651E-03  0.9556E+01
    -16.651  0.3976E+00  0.9561E+01
    -16.637  0.1586E+02  0.9792E+01
    -16.622  0.3748E+02  0.1034E+02
    -16.608  0.1774E+02  0.1060E+02
    -16.593  0.6320E+02  0.1152E+02
    -16.579  0.1786E+02  0.1178E+02
    -16.564  0.1649E+00  0.1178E+02
    -16.550  0.3084E-04  0.1178E+02
    -16.535  0.9685E-10  0.1178E+02
    -16.520  0.0000E+00  0.1178E+02
    -16.506  0.0000E+00  0.1178E+02
    -16.491  0.0000E+00  0.1178E+02
    -16.477  0.0000E+00  0.1178E+02
    -16.462  0.0000E+00  0.1178E+02
    -16.448  0.0000E+00  0.1178E+02
    -16.433  0.0000E+00  0.1178E+02
    -16.419  0.0000E+00  0.1178E+02
    -16.404  0.0000E+00  0.1178E+02
    -16.389  0.0000E+00  0.1178E+02
    -16.375  0.0000E+00  0.1178E+02
    -16.360  0.0000E+00  0.1178E+02
    -16.346  0.0000E+00  0.1178E+02
    -16.331  0.0000E+00  0.1178E+02
    -16.317  0.0000E+00  0.1178E+02
    -16.302  0.0000E+00  0.1178E+02
    -16.288  0.0000E+00  0.1178E+02
    -16.273  0.0000E+00  0.1178E+02
    -16.259  0.0000E+00  0.1178E+02
    -16.244  0.0000E+00  0.1178E+02
    -16.229  0.0000E+00  0.1178E+02
    -16.215  0.0000E+00  0.1178E+02
    -16.200  0.0000E+00  0.1178E+02
    -16.186  0.0000E+00  0.1178E+02
    -16.171  0.0000E+00  0.1178E+02
    -16.157  0.0000E+00  0.1178E+02
    -16.142  0.0000E+00  0.1178E+02
    -16.128  0.0000E+00  0.1178E+02
    -16.113  0.0000E+00  0.1178E+02
    -16.098  0.0000E+00  0.1178E+02
    -16.084  0.0000E+00  0.1178E+02
    -16.069  0.0000E+00  0.1178E+02
    -16.055  0.0000E+00  0.1178E+02
    -16.040  0.0000E+00  0.1178E+02
    -16.026  0.0000E+00  0.1178E+02
    -16.011  0.0000E+00  0.1178E+02
    -15.997  0.0000E+00  0.1178E+02
    -15.982  0.0000E+00  0.1178E+02
    -15.967  0.0000E+00  0.1178E+02
    -15.953  0.0000E+00  0.1178E+02
    -15.938  0.0000E+00  0.1178E+02
    -15.924  0.1574E-09  0.1178E+02
    -15.909  0.2616E-04  0.1178E+02
    -15.895  0.7424E-01  0.1178E+02
    -15.880  0.4491E+01  0.1184E+02
    -15.866  0.9744E+01  0.1199E+02
    -15.851  0.1012E+01  0.1200E+02
    -15.836  0.5718E+01  0.1208E+02
    -15.822  0.2096E+02  0.1239E+02
    -15.807  0.3785E+01  0.1244E+02
    -15.793  0.2193E-01  0.1244E+02
    -15.778  0.2653E-05  0.1244E+02
    -15.764  0.5603E-11  0.1244E+02
    -15.749  0.0000E+00  0.1244E+02
    -15.735  0.0000E+00  0.1244E+02
    -15.720  0.0000E+00  0.1244E+02
    -15.706  0.2169E-10  0.1244E+02
    -15.691  0.1046E-04  0.1244E+02
    -15.676  0.8374E-01  0.1245E+02
    -15.662  0.1319E+02  0.1264E+02
    -15.647  0.6379E+02  0.1357E+02
    -15.633  0.1445E+02  0.1378E+02
    -15.618  0.1024E+00  0.1378E+02
    -15.604  0.1438E-04  0.1378E+02
    -15.589  0.3364E-10  0.1378E+02
    -15.575  0.0000E+00  0.1378E+02
    -15.560  0.0000E+00  0.1378E+02
    -15.545  0.0000E+00  0.1378E+02
    -15.531  0.0000E+00  0.1378E+02
    -15.516  0.0000E+00  0.1378E+02
    -15.502  0.0000E+00  0.1378E+02
    -15.487  0.0000E+00  0.1378E+02
    -15.473  0.0000E+00  0.1378E+02
    -15.458  0.0000E+00  0.1378E+02
    -15.444  0.0000E+00  0.1378E+02
    -15.429  0.0000E+00  0.1378E+02
    -15.414  0.0000E+00  0.1378E+02
    -15.400  0.2243E-11  0.1378E+02
    -15.385  0.1483E-05  0.1378E+02
    -15.371  0.1618E-01  0.1378E+02
    -15.356  0.3402E+01  0.1383E+02
    -15.342  0.2101E+02  0.1413E+02
    -15.327  0.6052E+01  0.1422E+02
    -15.313  0.5710E-01  0.1422E+02
    -15.298  0.1092E-04  0.1422E+02
    -15.283  0.3512E-10  0.1422E+02
    -15.269  0.0000E+00  0.1422E+02
    -15.254  0.0000E+00  0.1422E+02
    -15.240  0.0000E+00  0.1422E+02
    -15.225  0.0000E+00  0.1422E+02
    -15.211  0.0000E+00  0.1422E+02
    -15.196  0.0000E+00  0.1422E+02
    -15.182  0.0000E+00  0.1422E+02
    -15.167  0.0000E+00  0.1422E+02
    -15.152  0.0000E+00  0.1422E+02
    -15.138  0.0000E+00  0.1422E+02
    -15.123  0.1034E-12  0.1422E+02
    -15.109  0.1524E-06  0.1422E+02
    -15.094  0.3661E-02  0.1422E+02
    -15.080  0.1620E+01  0.1425E+02
    -15.065  0.1887E+02  0.1452E+02
    -15.051  0.1005E+02  0.1467E+02
    -15.036  0.1026E+02  0.1482E+02
    -15.022  0.1871E+02  0.1509E+02
    -15.007  0.1554E+01  0.1511E+02
    -14.992  0.3378E-02  0.1511E+02
    -14.978  0.1351E-06  0.1511E+02
    -14.963  0.8816E-13  0.1511E+02
    -14.949  0.0000E+00  0.1511E+02
    -14.934  0.0000E+00  0.1511E+02
    -14.920  0.0000E+00  0.1511E+02
    -14.905  0.0000E+00  0.1511E+02
    -14.891  0.0000E+00  0.1511E+02
    -14.876  0.0000E+00  0.1511E+02
    -14.861  0.0000E+00  0.1511E+02
    -14.847  0.0000E+00  0.1511E+02
    -14.832  0.0000E+00  0.1511E+02
    -14.818  0.0000E+00  0.1511E+02
    -14.803  0.0000E+00  0.1511E+02
    -14.789  0.0000E+00  0.1511E+02
    -14.774  0.0000E+00  0.1511E+02
    -14.760  0.0000E+00  0.1511E+02
    -14.745  0.0000E+00  0.1511E+02
    -14.730  0.0000E+00  0.1511E+02
    -14.716  0.0000E+00  0.1511E+02
    -14.701  0.0000E+00  0.1511E+02
    -14.687  0.0000E+00  0.1511E+02
    -14.672  0.0000E+00  0.1511E+02
    -14.658  0.0000E+00  0.1511E+02
    -14.643  0.0000E+00  0.1511E+02
    -14.629  0.0000E+00  0.1511E+02
    -14.614  0.0000E+00  0.1511E+02
    -14.599  0.0000E+00  0.1511E+02
    -14.585  0.0000E+00  0.1511E+02
    -14.570  0.0000E+00  0.1511E+02
    -14.556  0.0000E+00  0.1511E+02
    -14.541  0.0000E+00  0.1511E+02
    -14.527  0.0000E+00  0.1511E+02
    -14.512  0.0000E+00  0.1511E+02
    -14.498  0.0000E+00  0.1511E+02
    -14.483  0.0000E+00  0.1511E+02
    -14.469  0.0000E+00  0.1511E+02
    -14.454  0.0000E+00  0.1511E+02
    -14.439  0.0000E+00  0.1511E+02
    -14.425  0.0000E+00  0.1511E+02
    -14.410  0.0000E+00  0.1511E+02
    -14.396  0.0000E+00  0.1511E+02
    -14.381  0.0000E+00  0.1511E+02
    -14.367  0.0000E+00  0.1511E+02
    -14.352  0.0000E+00  0.1511E+02
    -14.338  0.0000E+00  0.1511E+02
    -14.323  0.0000E+00  0.1511E+02
    -14.308  0.0000E+00  0.1511E+02
    -14.294  0.0000E+00  0.1511E+02
    -14.279  0.0000E+00  0.1511E+02
    -14.265  0.0000E+00  0.1511E+02
    -14.250  0.0000E+00  0.1511E+02
    -14.236  0.0000E+00  0.1511E+02
    -14.221  0.0000E+00  0.1511E+02
    -14.207  0.0000E+00  0.1511E+02
    -14.192  0.0000E+00  0.1511E+02
    -14.177  0.0000E+00  0.1511E+02
    -14.163  0.0000E+00  0.1511E+02
    -14.148  0.0000E+00  0.1511E+02
    -14.134  0.0000E+00  0.1511E+02
    -14.119  0.0000E+00  0.1511E+02
    -14.105  0.0000E+00  0.1511E+02
    -14.090  0.0000E+00  0.1511E+02
    -14.076  0.0000E+00  0.1511E+02
    -14.061  0.0000E+00  0.1511E+02
    -14.046  0.0000E+00  0.1511E+02
    -14.032  0.0000E+00  0.1511E+02
    -14.017  0.0000E+00  0.1511E+02
    -14.003  0.0000E+00  0.1511E+02
    -13.988  0.0000E+00  0.1511E+02
    -13.974  0.0000E+00  0.1511E+02
    -13.959  0.0000E+00  0.1511E+02
    -13.945  0.0000E+00  0.1511E+02
    -13.930  0.0000E+00  0.1511E+02
    -13.916  0.0000E+00  0.1511E+02
    -13.901  0.0000E+00  0.1511E+02
    -13.886  0.0000E+00  0.1511E+02
    -13.872  0.0000E+00  0.1511E+02
    -13.857  0.0000E+00  0.1511E+02
    -13.843  0.0000E+00  0.1511E+02
    -13.828  0.0000E+00  0.1511E+02
    -13.814  0.2712E-13  0.1511E+02
    -13.799  0.6803E-07  0.1511E+02
    -13.785  0.2677E-02  0.1511E+02
    -13.770  0.1898E+01  0.1514E+02
    -13.755  0.3354E+02  0.1563E+02
    -13.741  0.4610E+02  0.1630E+02
    -13.726  0.8226E+02  0.1749E+02
    -13.712  0.1923E+02  0.1777E+02
    -13.697  0.2047E+00  0.1778E+02
    -13.683  0.5888E-04  0.1778E+02
    -13.668  0.3271E-09  0.1778E+02
    -13.654  0.0000E+00  0.1778E+02
    -13.639  0.0000E+00  0.1778E+02
    -13.624  0.0000E+00  0.1778E+02
    -13.610  0.0000E+00  0.1778E+02
    -13.595  0.0000E+00  0.1778E+02
    -13.581  0.0000E+00  0.1778E+02
    -13.566  0.0000E+00  0.1778E+02
    -13.552  0.0000E+00  0.1778E+02
    -13.537  0.0000E+00  0.1778E+02
    -13.523  0.0000E+00  0.1778E+02
    -13.508  0.0000E+00  0.1778E+02
    -13.493  0.0000E+00  0.1778E+02
    -13.479  0.0000E+00  0.1778E+02
    -13.464  0.0000E+00  0.1778E+02
    -13.450  0.0000E+00  0.1778E+02
    -13.435  0.0000E+00  0.1778E+02
    -13.421  0.0000E+00  0.1778E+02
    -13.406  0.0000E+00  0.1778E+02
    -13.392  0.0000E+00  0.1778E+02
    -13.377  0.0000E+00  0.1778E+02
    -13.362  0.0000E+00  0.1778E+02
    -13.348  0.0000E+00  0.1778E+02
    -13.333  0.0000E+00  0.1778E+02
    -13.319  0.0000E+00  0.1778E+02
    -13.304  0.0000E+00  0.1778E+02
    -13.290  0.0000E+00  0.1778E+02
    -13.275  0.0000E+00  0.1778E+02
    -13.261  0.0000E+00  0.1778E+02
    -13.246  0.0000E+00  0.1778E+02
    -13.232  0.0000E+00  0.1778E+02
    -13.217  0.0000E+00  0.1778E+02
    -13.202  0.0000E+00  0.1778E+02
    -13.188  0.0000E+00  0.1778E+02
    -13.173  0.0000E+00  0.1778E+02
    -13.159  0.0000E+00  0.1778E+02
    -13.144  0.0000E+00  0.1778E+02
    -13.130  0.0000E+00  0.1778E+02
    -13.115  0.0000E+00  0.1778E+02
    -13.101  0.0000E+00  0.1778E+02
    -13.086  0.0000E+00  0.1778E+02
    -13.071  0.0000E+00  0.1778E+02
    -13.057  0.0000E+00  0.1778E+02
    -13.042  0.0000E+00  0.1778E+02
    -13.028  0.0000E+00  0.1778E+02
    -13.013  0.0000E+00  0.1778E+02
    -12.999  0.0000E+00  0.1778E+02
    -12.984  0.0000E+00  0.1778E+02
    -12.970  0.0000E+00  0.1778E+02
    -12.955  0.0000E+00  0.1778E+02
    -12.940  0.1572E-10  0.1778E+02
    -12.926  0.6124E-05  0.1778E+02
    -12.911  0.3984E-01  0.1778E+02
    -12.897  0.5166E+01  0.1785E+02
    -12.882  0.2123E+02  0.1816E+02
    -12.868  0.4081E+01  0.1822E+02
    -12.853  0.2377E-01  0.1822E+02
    -12.839  0.2703E-05  0.1822E+02
    -12.824  0.5096E-11  0.1822E+02
    -12.809  0.0000E+00  0.1822E+02
    -12.795  0.0000E+00  0.1822E+02
    -12.780  0.0000E+00  0.1822E+02
    -12.766  0.0000E+00  0.1822E+02
    -12.751  0.0000E+00  0.1822E+02
    -12.737  0.0000E+00  0.1822E+02
    -12.722  0.0000E+00  0.1822E+02
    -12.708  0.0000E+00  0.1822E+02
    -12.693  0.0000E+00  0.1822E+02
    -12.679  0.0000E+00  0.1822E+02
    -12.664  0.0000E+00  0.1822E+02
    -12.649  0.0000E+00  0.1822E+02
    -12.635  0.0000E+00  0.1822E+02
    -12.620  0.0000E+00  0.1822E+02
    -12.606  0.0000E+00  0.1822E+02
    -12.591  0.0000E+00  0.1822E+02
    -12.577  0.0000E+00  0.1822E+02
    -12.562  0.0000E+00  0.1822E+02
    -12.548  0.0000E+00  0.1822E+02
    -12.533  0.0000E+00  0.1822E+02
    -12.518  0.0000E+00  0.1822E+02
    -12.504  0.0000E+00  0.1822E+02
    -12.489  0.0000E+00  0.1822E+02
    -12.475  0.0000E+00  0.1822E+02
    -12.460  0.0000E+00  0.1822E+02
    -12.446  0.0000E+00  0.1822E+02
    -12.431  0.0000E+00  0.1822E+02
    -12.417  0.0000E+00  0.1822E+02
    -12.402  0.0000E+00  0.1822E+02
    -12.387  0.0000E+00  0.1822E+02
    -12.373  0.0000E+00  0.1822E+02
    -12.358  0.0000E+00  0.1822E+02
    -12.344  0.0000E+00  0.1822E+02
    -12.329  0.0000E+00  0.1822E+02
    -12.315  0.0000E+00  0.1822E+02
    -12.300  0.0000E+00  0.1822E+02
    -12.286  0.0000E+00  0.1822E+02
    -12.271  0.0000E+00  0.1822E+02
    -12.256  0.0000E+00  0.1822E+02
    -12.242  0.0000E+00  0.1822E+02
    -12.227  0.0000E+00  0.1822E+02
    -12.213  0.0000E+00  0.1822E+02
    -12.198  0.0000E+00  0.1822E+02
    -12.184  0.0000E+00  0.1822E+02
    -12.169  0.0000E+00  0.1822E+02
    -12.155  0.0000E+00  0.1822E+02
    -12.140  0.0000E+00  0.1822E+02
    -12.126  0.0000E+00  0.1822E+02
    -12.111  0.0000E+00  0.1822E+02
    -12.096  0.5471E-08  0.1822E+02
    -12.082  0.5371E-03  0.1822E+02
    -12.067  0.9184E+00  0.1824E+02
    -12.053  0.3522E+02  0.1875E+02
    -12.038  0.5212E+02  0.1951E+02
    -12.024  0.3363E+01  0.1956E+02
    -12.009  0.5478E-02  0.1956E+02
    -11.995  0.1622E-06  0.1956E+02
    -11.980  0.6674E-05  0.1956E+02
    -11.965  0.3234E-01  0.1956E+02
    -11.951  0.3194E+01  0.1960E+02
    -11.936  0.1045E+02  0.1975E+02
    -11.922  0.1589E+01  0.1978E+02
    -11.907  0.7014E-02  0.1978E+02
    -11.893  0.5933E-06  0.1978E+02
    -11.878  0.8273E-12  0.1978E+02
    -11.864  0.0000E+00  0.1978E+02
    -11.849  0.0000E+00  0.1978E+02
    -11.834  0.0000E+00  0.1978E+02
    -11.820  0.0000E+00  0.1978E+02
    -11.805  0.5824E-10  0.1978E+02
    -11.791  0.1573E-04  0.1978E+02
    -11.776  0.7157E-01  0.1978E+02
    -11.762  0.6686E+01  0.1988E+02
    -11.747  0.2553E+02  0.2025E+02
    -11.733  0.4328E+02  0.2088E+02
    -11.718  0.1584E+02  0.2111E+02
    -11.703  0.2185E+00  0.2111E+02
    -11.689  0.6404E-04  0.2111E+02
    -11.674  0.3232E-09  0.2111E+02
    -11.660  0.0000E+00  0.2111E+02
    -11.645  0.0000E+00  0.2111E+02
    -11.631  0.0000E+00  0.2111E+02
    -11.616  0.0000E+00  0.2111E+02
    -11.602  0.0000E+00  0.2111E+02
    -11.587  0.0000E+00  0.2111E+02
    -11.572  0.0000E+00  0.2111E+02
    -11.558  0.0000E+00  0.2111E+02
    -11.543  0.0000E+00  0.2111E+02
    -11.529  0.0000E+00  0.2111E+02
    -11.514  0.0000E+00  0.2111E+02
    -11.500  0.0000E+00  0.2111E+02
    -11.485  0.0000E+00  0.2111E+02
    -11.471  0.0000E+00  0.2111E+02
    -11.456  0.0000E+00  0.2111E+02
    -11.442  0.0000E+00  0.2111E+02
    -11.427  0.0000E+00  0.2111E+02
    -11.412  0.0000E+00  0.2111E+02
    -11.398  0.0000E+00  0.2111E+02
    -11.383  0.0000E+00  0.2111E+02
    -11.369  0.0000E+00  0.2111E+02
    -11.354  0.0000E+00  0.2111E+02
    -11.340  0.0000E+00  0.2111E+02
    -11.325  0.0000E+00  0.2111E+02
    -11.311  0.0000E+00  0.2111E+02
    -11.296  0.0000E+00  0.2111E+02
    -11.281  0.0000E+00  0.2111E+02
    -11.267  0.0000E+00  0.2111E+02
    -11.252  0.0000E+00  0.2111E+02
    -11.238  0.0000E+00  0.2111E+02
    -11.223  0.0000E+00  0.2111E+02
    -11.209  0.0000E+00  0.2111E+02
    -11.194  0.0000E+00  0.2111E+02
    -11.180  0.0000E+00  0.2111E+02
    -11.165  0.0000E+00  0.2111E+02
    -11.150  0.0000E+00  0.2111E+02
    -11.136  0.0000E+00  0.2111E+02
    -11.121  0.0000E+00  0.2111E+02
    -11.107  0.0000E+00  0.2111E+02
    -11.092  0.0000E+00  0.2111E+02
    -11.078  0.0000E+00  0.2111E+02
    -11.063  0.0000E+00  0.2111E+02
    -11.049  0.0000E+00  0.2111E+02
    -11.034  0.0000E+00  0.2111E+02
    -11.019  0.0000E+00  0.2111E+02
    -11.005  0.0000E+00  0.2111E+02
    -10.990  0.1017E-09  0.2111E+02
    -10.976  0.2336E-04  0.2111E+02
    -10.961  0.9102E-01  0.2111E+02
    -10.947  0.7371E+01  0.2122E+02
    -10.932  0.2045E+02  0.2152E+02
    -10.918  0.2621E+01  0.2156E+02
    -10.903  0.9473E-02  0.2156E+02
    -10.889  0.6495E-06  0.2156E+02
    -10.874  0.7324E-12  0.2156E+02
    -10.859  0.0000E+00  0.2156E+02
    -10.845  0.0000E+00  0.2156E+02
    -10.830  0.0000E+00  0.2156E+02
    -10.816  0.0000E+00  0.2156E+02
    -10.801  0.0000E+00  0.2156E+02
    -10.787  0.0000E+00  0.2156E+02
    -10.772  0.0000E+00  0.2156E+02
    -10.758  0.0000E+00  0.2156E+02
    -10.743  0.0000E+00  0.2156E+02
    -10.728  0.0000E+00  0.2156E+02
    -10.714  0.0000E+00  0.2156E+02
    -10.699  0.0000E+00  0.2156E+02
    -10.685  0.0000E+00  0.2156E+02
    -10.670  0.0000E+00  0.2156E+02
    -10.656  0.0000E+00  0.2156E+02
    -10.641  0.0000E+00  0.2156E+02
    -10.627  0.0000E+00  0.2156E+02
    -10.612  0.0000E+00  0.2156E+02
    -10.597  0.1560E-12  0.2156E+02
    -10.583  0.2366E-06  0.2156E+02
    -10.568  0.5993E-02  0.2156E+02
    -10.554  0.2867E+01  0.2160E+02
    -10.539  0.3660E+02  0.2213E+02
    -10.525  0.2114E+02  0.2244E+02
    -10.510  0.4681E+00  0.2244E+02
    -10.496  0.2343E-03  0.2244E+02
    -10.481  0.2085E-08  0.2244E+02
    -10.466  0.0000E+00  0.2244E+02
    -10.452  0.0000E+00  0.2244E+02
    -10.437  0.0000E+00  0.2244E+02
    -10.423  0.0000E+00  0.2244E+02
    -10.408  0.0000E+00  0.2244E+02
    -10.394  0.0000E+00  0.2244E+02
    -10.379  0.0000E+00  0.2244E+02
    -10.365  0.0000E+00  0.2244E+02
    -10.350  0.0000E+00  0.2244E+02
    -10.336  0.0000E+00  0.2244E+02
    -10.321  0.0000E+00  0.2244E+02
    -10.306  0.0000E+00  0.2244E+02
    -10.292  0.0000E+00  0.2244E+02
    -10.277  0.0000E+00  0.2244E+02
    -10.263  0.0000E+00  0.2244E+02
    -10.248  0.0000E+00  0.2244E+02
    -10.234  0.1288E-12  0.2244E+02
    -10.219  0.2361E-06  0.2244E+02
    -10.205  0.7054E-02  0.2244E+02
    -10.190  0.3849E+01  0.2250E+02
    -10.175  0.5382E+02  0.2328E+02
    -10.161  0.3317E+02  0.2377E+02
    -10.146  0.7755E+00  0.2378E+02
    -10.132  0.4016E-03  0.2378E+02
    -10.117  0.3605E-08  0.2378E+02
    -10.103  0.0000E+00  0.2378E+02
    -10.088  0.0000E+00  0.2378E+02
    -10.074  0.5533E-11  0.2378E+02
    -10.059  0.3238E-05  0.2378E+02
    -10.044  0.3321E-01  0.2378E+02
    -10.030  0.7566E+01  0.2389E+02
    -10.015  0.6897E+02  0.2489E+02
    -10.001  0.6357E+02  0.2582E+02
     -9.986  0.3974E+02  0.2640E+02
     -9.972  0.3359E+01  0.2644E+02
     -9.957  0.7841E-02  0.2644E+02
     -9.943  0.3382E-06  0.2644E+02
     -9.928  0.2373E-12  0.2644E+02
     -9.913  0.0000E+00  0.2644E+02
     -9.899  0.0000E+00  0.2644E+02
     -9.884  0.0000E+00  0.2644E+02
     -9.870  0.0000E+00  0.2644E+02
     -9.855  0.0000E+00  0.2644E+02
     -9.841  0.0000E+00  0.2644E+02
     -9.826  0.0000E+00  0.2644E+02
     -9.812  0.0000E+00  0.2644E+02
     -9.797  0.0000E+00  0.2644E+02
     -9.782  0.8477E-15  0.2644E+02
     -9.768  0.2918E-08  0.2644E+02
     -9.753  0.2010E-03  0.2644E+02
     -9.739  0.2438E+00  0.2645E+02
     -9.724  0.6894E+01  0.2655E+02
     -9.710  0.1605E+02  0.2678E+02
     -9.695  0.6210E+02  0.2769E+02
     -9.681  0.2136E+02  0.2800E+02
     -9.666  0.2545E+00  0.2800E+02
     -9.652  0.2215E+01  0.2803E+02
     -9.637  0.3440E+02  0.2853E+02
     -9.622  0.2416E+02  0.2888E+02
     -9.608  0.1311E+02  0.2908E+02
     -9.593  0.1676E+02  0.2932E+02
     -9.579  0.9843E+00  0.2933E+02
     -9.564  0.3270E+01  0.2938E+02
     -9.550  0.2095E+02  0.2969E+02
     -9.535  0.6248E+01  0.2978E+02
     -9.521  0.6143E-01  0.2978E+02
     -9.506  0.1228E-04  0.2978E+02
     -9.491  0.4124E-10  0.2978E+02
     -9.477  0.0000E+00  0.2978E+02
     -9.462  0.0000E+00  0.2978E+02
     -9.448  0.0000E+00  0.2978E+02
     -9.433  0.0000E+00  0.2978E+02
     -9.419  0.0000E+00  0.2978E+02
     -9.404  0.0000E+00  0.2978E+02
     -9.390  0.0000E+00  0.2978E+02
     -9.375  0.0000E+00  0.2978E+02
     -9.360  0.0000E+00  0.2978E+02
     -9.346  0.0000E+00  0.2978E+02
     -9.331  0.0000E+00  0.2978E+02
     -9.317  0.0000E+00  0.2978E+02
     -9.302  0.0000E+00  0.2978E+02
     -9.288  0.0000E+00  0.2978E+02
     -9.273  0.0000E+00  0.2978E+02
     -9.259  0.0000E+00  0.2978E+02
     -9.244  0.0000E+00  0.2978E+02
     -9.229  0.0000E+00  0.2978E+02
     -9.215  0.0000E+00  0.2978E+02
     -9.200  0.0000E+00  0.2978E+02
     -9.186  0.0000E+00  0.2978E+02
     -9.171  0.0000E+00  0.2978E+02
     -9.157  0.0000E+00  0.2978E+02
     -9.142  0.0000E+00  0.2978E+02
     -9.128  0.0000E+00  0.2978E+02
     -9.113  0.0000E+00  0.2978E+02
     -9.099  0.0000E+00  0.2978E+02
     -9.084  0.0000E+00  0.2978E+02
     -9.069  0.0000E+00  0.2978E+02
     -9.055  0.0000E+00  0.2978E+02
     -9.040  0.0000E+00  0.2978E+02
     -9.026  0.0000E+00  0.2978E+02
     -9.011  0.0000E+00  0.2978E+02
     -8.997  0.0000E+00  0.2978E+02
     -8.982  0.0000E+00  0.2978E+02
     -8.968  0.0000E+00  0.2978E+02
     -8.953  0.0000E+00  0.2978E+02
     -8.938  0.0000E+00  0.2978E+02
     -8.924  0.0000E+00  0.2978E+02
     -8.909  0.0000E+00  0.2978E+02
     -8.895  0.3993E-09  0.2978E+02
     -8.880  0.5040E-04  0.2978E+02
     -8.866  0.1096E+00  0.2978E+02
     -8.851  0.5208E+01  0.2986E+02
     -8.837  0.9266E+01  0.2999E+02
     -8.822  0.7795E+01  0.3010E+02
     -8.807  0.5492E+02  0.3090E+02
     -8.793  0.2886E+02  0.3132E+02
     -8.778  0.7343E+00  0.3133E+02
     -8.764  0.4645E-03  0.3133E+02
     -8.749  0.5249E-08  0.3133E+02
     -8.735  0.0000E+00  0.3133E+02
     -8.720  0.0000E+00  0.3133E+02
     -8.706  0.0000E+00  0.3133E+02
     -8.691  0.0000E+00  0.3133E+02
     -8.676  0.0000E+00  0.3133E+02
     -8.662  0.0000E+00  0.3133E+02
     -8.647  0.0000E+00  0.3133E+02
     -8.633  0.0000E+00  0.3133E+02
     -8.618  0.0000E+00  0.3133E+02
     -8.604  0.0000E+00  0.3133E+02
     -8.589  0.0000E+00  0.3133E+02
     -8.575  0.0000E+00  0.3133E+02
     -8.560  0.0000E+00  0.3133E+02
     -8.546  0.0000E+00  0.3133E+02
     -8.531  0.0000E+00  0.3133E+02
     -8.516  0.0000E+00  0.3133E+02
     -8.502  0.0000E+00  0.3133E+02
     -8.487  0.0000E+00  0.3133E+02
     -8.473  0.0000E+00  0.3133E+02
     -8.458  0.0000E+00  0.3133E+02
     -8.444  0.0000E+00  0.3133E+02
     -8.429  0.0000E+00  0.3133E+02
     -8.415  0.0000E+00  0.3133E+02
     -8.400  0.0000E+00  0.3133E+02
     -8.385  0.0000E+00  0.3133E+02
     -8.371  0.0000E+00  0.3133E+02
     -8.356  0.0000E+00  0.3133E+02
     -8.342  0.0000E+00  0.3133E+02
     -8.327  0.0000E+00  0.3133E+02
     -8.313  0.0000E+00  0.3133E+02
     -8.298  0.0000E+00  0.3133E+02
     -8.284  0.0000E+00  0.3133E+02
     -8.269  0.0000E+00  0.3133E+02
     -8.254  0.9994E-12  0.3133E+02
     -8.240  0.8068E-06  0.3133E+02
     -8.225  0.1084E-01  0.3133E+02
     -8.211  0.2898E+01  0.3138E+02
     -8.196  0.2938E+02  0.3180E+02
     -8.182  0.3655E+02  0.3234E+02
     -8.167  0.1382E+02  0.3254E+02
     -8.153  0.4170E+02  0.3314E+02
     -8.138  0.1294E+02  0.3333E+02
     -8.123  0.1384E+00  0.3333E+02
     -8.109  0.3154E-04  0.3333E+02
     -8.094  0.1255E-09  0.3333E+02
     -8.080  0.0000E+00  0.3333E+02
     -8.065  0.0000E+00  0.3333E+02
     -8.051  0.0000E+00  0.3333E+02
     -8.036  0.0000E+00  0.3333E+02
     -8.022  0.0000E+00  0.3333E+02
     -8.007  0.0000E+00  0.3333E+02
     -7.992  0.0000E+00  0.3333E+02
     -7.978  0.0000E+00  0.3333E+02
     -7.963  0.0000E+00  0.3333E+02
     -7.949  0.0000E+00  0.3333E+02
     -7.934  0.0000E+00  0.3333E+02
     -7.920  0.0000E+00  0.3333E+02
     -7.905  0.0000E+00  0.3333E+02
     -7.891  0.0000E+00  0.3333E+02
     -7.876  0.5392E-09  0.3333E+02
     -7.862  0.6221E-04  0.3333E+02
     -7.847  0.1240E+00  0.3334E+02
     -7.832  0.5450E+01  0.3341E+02
     -7.818  0.9034E+01  0.3355E+02
     -7.803  0.6608E+00  0.3356E+02
     -7.789  0.1241E-02  0.3356E+02
     -7.774  0.4253E-07  0.3356E+02
     -7.760  0.2373E-13  0.3356E+02
     -7.745  0.0000E+00  0.3356E+02
     -7.731  0.0000E+00  0.3356E+02
     -7.716  0.0000E+00  0.3356E+02
     -7.701  0.0000E+00  0.3356E+02
     -7.687  0.0000E+00  0.3356E+02
     -7.672  0.0000E+00  0.3356E+02
     -7.658  0.0000E+00  0.3356E+02
     -7.643  0.0000E+00  0.3356E+02
     -7.629  0.0000E+00  0.3356E+02
     -7.614  0.0000E+00  0.3356E+02
     -7.600  0.0000E+00  0.3356E+02
     -7.585  0.0000E+00  0.3356E+02
     -7.570  0.0000E+00  0.3356E+02
     -7.556  0.0000E+00  0.3356E+02
     -7.541  0.0000E+00  0.3356E+02
     -7.527  0.1422E-09  0.3356E+02
     -7.512  0.3569E-04  0.3356E+02
     -7.498  0.1530E+00  0.3356E+02
     -7.483  0.1367E+02  0.3376E+02
     -7.469  0.4463E+02  0.3441E+02
     -7.454  0.2679E+02  0.3480E+02
     -7.439  0.6306E+01  0.3489E+02
     -7.425  0.6219E-01  0.3489E+02
     -7.410  0.1252E-04  0.3489E+02
     -7.396  0.4240E-10  0.3489E+02
     -7.381  0.0000E+00  0.3489E+02
     -7.367  0.0000E+00  0.3489E+02
     -7.352  0.0000E+00  0.3489E+02
     -7.338  0.0000E+00  0.3489E+02
     -7.323  0.0000E+00  0.3489E+02
     -7.309  0.0000E+00  0.3489E+02
     -7.294  0.0000E+00  0.3489E+02
     -7.279  0.0000E+00  0.3489E+02
     -7.265  0.0000E+00  0.3489E+02
     -7.250  0.0000E+00  0.3489E+02
     -7.236  0.0000E+00  0.3489E+02
     -7.221  0.0000E+00  0.3489E+02
     -7.207  0.1446E-08  0.3489E+02
     -7.192  0.1527E-03  0.3489E+02
     -7.178  0.2796E+00  0.3489E+02
     -7.163  0.1138E+02  0.3506E+02
     -7.148  0.1768E+02  0.3532E+02
     -7.134  0.1203E+01  0.3533E+02
     -7.119  0.2078E-02  0.3533E+02
     -7.105  0.6524E-07  0.3533E+02
     -7.090  0.7830E-06  0.3533E+02
     -7.076  0.1536E-01  0.3533E+02
     -7.061  0.5718E+01  0.3542E+02
     -7.047  0.5825E+02  0.3626E+02
     -7.032  0.2718E+02  0.3666E+02
     -7.017  0.4620E+00  0.3667E+02
     -7.003  0.5217E+00  0.3667E+02
     -6.988  0.1413E+02  0.3688E+02
     -6.974  0.2318E+02  0.3722E+02
     -6.959  0.2087E+02  0.3752E+02
     -6.945  0.2374E+01  0.3756E+02
     -6.930  0.2607E+00  0.3756E+02
     -6.916  0.1099E+02  0.3772E+02
     -6.901  0.2152E+02  0.3803E+02
     -6.886  0.3953E+02  0.3861E+02
     -6.872  0.1898E+02  0.3888E+02
     -6.857  0.3484E+00  0.3889E+02
     -6.843  0.1406E-03  0.3889E+02
     -6.828  0.9940E-09  0.3889E+02
     -6.814  0.3019E-11  0.3889E+02
     -6.799  0.2144E-05  0.3889E+02
     -6.785  0.2564E-01  0.3889E+02
     -6.770  0.6008E+01  0.3898E+02
     -6.756  0.4143E+02  0.3958E+02
     -6.741  0.1347E+02  0.3978E+02
     -6.726  0.1498E+00  0.3978E+02
     -6.712  0.4375E-04  0.3978E+02
     -6.697  0.7441E-01  0.3978E+02
     -6.683  0.1248E+02  0.3996E+02
     -6.668  0.6372E+02  0.4089E+02
     -6.654  0.1522E+02  0.4111E+02
     -6.639  0.1149E+00  0.4111E+02
     -6.625  0.1726E-04  0.4111E+02
     -6.610  0.4331E-10  0.4111E+02
     -6.595  0.0000E+00  0.4111E+02
     -6.581  0.0000E+00  0.4111E+02
     -6.566  0.0000E+00  0.4111E+02
     -6.552  0.0000E+00  0.4111E+02
     -6.537  0.0000E+00  0.4111E+02
     -6.523  0.0000E+00  0.4111E+02
     -6.508  0.0000E+00  0.4111E+02
     -6.494  0.0000E+00  0.4111E+02
     -6.479  0.0000E+00  0.4111E+02
     -6.464  0.0000E+00  0.4111E+02
     -6.450  0.0000E+00  0.4111E+02
     -6.435  0.0000E+00  0.4111E+02
     -6.421  0.0000E+00  0.4111E+02
     -6.406  0.0000E+00  0.4111E+02
     -6.392  0.0000E+00  0.4111E+02
     -6.377  0.0000E+00  0.4111E+02
     -6.363  0.0000E+00  0.4111E+02
     -6.348  0.0000E+00  0.4111E+02
     -6.333  0.0000E+00  0.4111E+02
     -6.319  0.0000E+00  0.4111E+02
     -6.304  0.0000E+00  0.4111E+02
     -6.290  0.0000E+00  0.4111E+02
     -6.275  0.0000E+00  0.4111E+02
     -6.261  0.0000E+00  0.4111E+02
     -6.246  0.0000E+00  0.4111E+02
     -6.232  0.0000E+00  0.4111E+02
     -6.217  0.4861E-09  0.4111E+02
     -6.202  0.7113E-04  0.4111E+02
     -6.188  0.1802E+00  0.4111E+02
     -6.173  0.1122E+02  0.4128E+02
     -6.159  0.5074E+02  0.4202E+02
     -6.144  0.2859E+02  0.4243E+02
     -6.130  0.6041E+01  0.4252E+02
     -6.115  0.3621E+02  0.4305E+02
     -6.101  0.3297E+02  0.4353E+02
     -6.086  0.4196E+02  0.4414E+02
     -6.072  0.5844E+01  0.4422E+02
     -6.057  0.2405E-01  0.4422E+02
     -6.042  0.1924E-05  0.4422E+02
     -6.028  0.2577E-11  0.4422E+02
     -6.013  0.0000E+00  0.4422E+02
     -5.999  0.0000E+00  0.4422E+02
     -5.984  0.0000E+00  0.4422E+02
     -5.970  0.0000E+00  0.4422E+02
     -5.955  0.0000E+00  0.4422E+02
     -5.941  0.0000E+00  0.4422E+02
     -5.926  0.0000E+00  0.4422E+02
     -5.911  0.0000E+00  0.4422E+02
     -5.897  0.0000E+00  0.4422E+02
     -5.882  0.0000E+00  0.4422E+02
     -5.868  0.0000E+00  0.4422E+02
     -5.853  0.0000E+00  0.4422E+02
     -5.839  0.0000E+00  0.4422E+02
     -5.824  0.0000E+00  0.4422E+02
     -5.810  0.0000E+00  0.4422E+02
     -5.795  0.0000E+00  0.4422E+02
     -5.780  0.0000E+00  0.4422E+02
     -5.766  0.0000E+00  0.4422E+02
     -5.751  0.0000E+00  0.4422E+02
     -5.737  0.0000E+00  0.4422E+02
     -5.722  0.0000E+00  0.4422E+02
     -5.708  0.0000E+00  0.4422E+02
     -5.693  0.4654E-11  0.4422E+02
     -5.679  0.2962E-05  0.4422E+02
     -5.664  0.3172E-01  0.4422E+02
     -5.649  0.6676E+01  0.4432E+02
     -5.635  0.4210E+02  0.4493E+02
     -5.620  0.2309E+02  0.4527E+02
     -5.606  0.1834E+02  0.4554E+02
     -5.591  0.1372E+01  0.4556E+02
     -5.577  0.2664E-02  0.4556E+02
     -5.562  0.9457E-07  0.4556E+02
     -5.548  0.5425E-13  0.4556E+02
     -5.533  0.0000E+00  0.4556E+02
     -5.519  0.0000E+00  0.4556E+02
     -5.504  0.0000E+00  0.4556E+02
     -5.489  0.0000E+00  0.4556E+02
     -5.475  0.0000E+00  0.4556E+02
     -5.460  0.0000E+00  0.4556E+02
     -5.446  0.0000E+00  0.4556E+02
     -5.431  0.0000E+00  0.4556E+02
     -5.417  0.0000E+00  0.4556E+02
     -5.402  0.0000E+00  0.4556E+02
     -5.388  0.0000E+00  0.4556E+02
     -5.373  0.0000E+00  0.4556E+02
     -5.358  0.0000E+00  0.4556E+02
     -5.344  0.0000E+00  0.4556E+02
     -5.329  0.0000E+00  0.4556E+02
     -5.315  0.0000E+00  0.4556E+02
     -5.300  0.0000E+00  0.4556E+02
     -5.286  0.0000E+00  0.4556E+02
     -5.271  0.0000E+00  0.4556E+02
     -5.257  0.0000E+00  0.4556E+02
     -5.242  0.0000E+00  0.4556E+02
     -5.227  0.0000E+00  0.4556E+02
     -5.213  0.0000E+00  0.4556E+02
     -5.198  0.0000E+00  0.4556E+02
     -5.184  0.0000E+00  0.4556E+02
     -5.169  0.0000E+00  0.4556E+02
     -5.155  0.0000E+00  0.4556E+02
     -5.140  0.0000E+00  0.4556E+02
     -5.126  0.0000E+00  0.4556E+02
     -5.111  0.0000E+00  0.4556E+02
     -5.096  0.2452E-10  0.4556E+02
     -5.082  0.1143E-04  0.4556E+02
     -5.067  0.8865E-01  0.4556E+02
     -5.053  0.1354E+02  0.4575E+02
     -5.038  0.6381E+02  0.4668E+02
     -5.024  0.1409E+02  0.4689E+02
     -5.009  0.9671E-01  0.4689E+02
     -4.995  0.1312E-04  0.4689E+02
     -4.980  0.2965E-10  0.4689E+02
     -4.966  0.0000E+00  0.4689E+02
     -4.951  0.0000E+00  0.4689E+02
     -4.936  0.0000E+00  0.4689E+02
     -4.922  0.0000E+00  0.4689E+02
     -4.907  0.0000E+00  0.4689E+02
     -4.893  0.0000E+00  0.4689E+02
     -4.878  0.0000E+00  0.4689E+02
     -4.864  0.0000E+00  0.4689E+02
     -4.849  0.0000E+00  0.4689E+02
     -4.835  0.0000E+00  0.4689E+02
     -4.820  0.0000E+00  0.4689E+02
     -4.805  0.0000E+00  0.4689E+02
     -4.791  0.5562E-11  0.4689E+02
     -4.776  0.2882E-05  0.4689E+02
     -4.762  0.2476E-01  0.4689E+02
     -4.747  0.4159E+01  0.4695E+02
     -4.733  0.2124E+02  0.4726E+02
     -4.718  0.5077E+01  0.4733E+02
     -4.704  0.3831E-01  0.4733E+02
     -4.689  0.5754E-05  0.4733E+02
     -4.674  0.1442E-10  0.4733E+02
     -4.660  0.0000E+00  0.4733E+02
     -4.645  0.0000E+00  0.4733E+02
     -4.631  0.0000E+00  0.4733E+02
     -4.616  0.0000E+00  0.4733E+02
     -4.602  0.0000E+00  0.4733E+02
     -4.587  0.0000E+00  0.4733E+02
     -4.573  0.0000E+00  0.4733E+02
     -4.558  0.0000E+00  0.4733E+02
     -4.543  0.0000E+00  0.4733E+02
     -4.529  0.0000E+00  0.4733E+02
     -4.514  0.0000E+00  0.4733E+02
     -4.500  0.0000E+00  0.4733E+02
     -4.485  0.0000E+00  0.4733E+02
     -4.471  0.0000E+00  0.4733E+02
     -4.456  0.0000E+00  0.4733E+02
     -4.442  0.0000E+00  0.4733E+02
     -4.427  0.3391E-13  0.4733E+02
     -4.412  0.5535E-07  0.4733E+02
     -4.398  0.1480E-02  0.4733E+02
     -4.383  0.7249E+00  0.4734E+02
     -4.369  0.9221E+01  0.4748E+02
     -4.354  0.5232E+01  0.4755E+02
     -4.340  0.2636E+01  0.4759E+02
     -4.325  0.1062E+02  0.4775E+02
     -4.311  0.2090E+01  0.4778E+02
     -4.296  0.1251E-01  0.4778E+02
     -4.282  0.1466E-05  0.4778E+02
     -4.267  0.2848E-11  0.4778E+02
     -4.252  0.0000E+00  0.4778E+02
     -4.238  0.0000E+00  0.4778E+02
     -4.223  0.0000E+00  0.4778E+02
     -4.209  0.0000E+00  0.4778E+02
     -4.194  0.0000E+00  0.4778E+02
     -4.180  0.0000E+00  0.4778E+02
     -4.165  0.2080E-11  0.4778E+02
     -4.151  0.1405E-05  0.4778E+02
     -4.136  0.1564E-01  0.4778E+02
     -4.121  0.3352E+01  0.4783E+02
     -4.107  0.2254E+02  0.4815E+02
     -4.092  0.2485E+02  0.4852E+02
     -4.078  0.1012E+02  0.4866E+02
     -4.063  0.1999E+00  0.4867E+02
     -4.049  0.8622E-04  0.4867E+02
     -4.034  0.6394E-09  0.4867E+02
     -4.020  0.0000E+00  0.4867E+02
     -4.005  0.0000E+00  0.4867E+02
     -3.990  0.0000E+00  0.4867E+02
     -3.976  0.0000E+00  0.4867E+02
     -3.961  0.0000E+00  0.4867E+02
     -3.947  0.0000E+00  0.4867E+02
     -3.932  0.0000E+00  0.4867E+02
     -3.918  0.0000E+00  0.4867E+02
     -3.903  0.0000E+00  0.4867E+02
     -3.889  0.0000E+00  0.4867E+02
     -3.874  0.3538E-08  0.4867E+02
     -3.859  0.2876E-03  0.4867E+02
     -3.845  0.4274E+00  0.4867E+02
     -3.830  0.1721E+02  0.4892E+02
     -3.816  0.3795E+02  0.4948E+02
     -3.801  0.1767E+02  0.4973E+02
     -3.787  0.2606E+02  0.5011E+02
     -3.772  0.2700E+02  0.5050E+02
     -3.758  0.2304E+02  0.5084E+02
     -3.743  0.3333E+01  0.5089E+02
     -3.729  0.1615E-01  0.5089E+02
     -3.714  0.1010E+01  0.5090E+02
     -3.699  0.3497E+02  0.5141E+02
     -3.685  0.5184E+02  0.5217E+02
     -3.670  0.3787E+01  0.5222E+02
     -3.656  0.2890E-01  0.5222E+02
     -3.641  0.3982E+01  0.5228E+02
     -3.627  0.3093E+02  0.5273E+02
     -3.612  0.2445E+02  0.5309E+02
     -3.598  0.1694E+01  0.5311E+02
     -3.583  0.3792E-02  0.5311E+02
     -3.568  0.1602E-06  0.5311E+02
     -3.554  0.1102E-12  0.5311E+02
     -3.539  0.0000E+00  0.5311E+02
     -3.525  0.0000E+00  0.5311E+02
     -3.510  0.0000E+00  0.5311E+02
     -3.496  0.3525E-10  0.5311E+02
     -3.481  0.9017E-05  0.5311E+02
     -3.467  0.3892E-01  0.5311E+02
     -3.452  0.3456E+01  0.5316E+02
     -3.437  0.1034E+02  0.5331E+02
     -3.423  0.1432E+01  0.5333E+02
     -3.408  0.5666E-02  0.5333E+02
     -3.394  0.6282E-04  0.5333E+02
     -3.379  0.1265E+00  0.5334E+02
     -3.365  0.6388E+01  0.5343E+02
     -3.350  0.1874E+02  0.5370E+02
     -3.336  0.5209E+01  0.5378E+02
     -3.321  0.7795E-01  0.5378E+02
     -3.306  0.2767E-04  0.5378E+02
     -3.292  0.1701E-09  0.5378E+02
     -3.277  0.0000E+00  0.5378E+02
     -3.263  0.0000E+00  0.5378E+02
     -3.248  0.0000E+00  0.5378E+02
     -3.234  0.0000E+00  0.5378E+02
     -3.219  0.0000E+00  0.5378E+02
     -3.205  0.0000E+00  0.5378E+02
     -3.190  0.0000E+00  0.5378E+02
     -3.176  0.0000E+00  0.5378E+02
     -3.161  0.0000E+00  0.5378E+02
     -3.146  0.0000E+00  0.5378E+02
     -3.132  0.0000E+00  0.5378E+02
     -3.117  0.0000E+00  0.5378E+02
     -3.103  0.0000E+00  0.5378E+02
     -3.088  0.0000E+00  0.5378E+02
     -3.074  0.0000E+00  0.5378E+02
     -3.059  0.0000E+00  0.5378E+02
     -3.045  0.0000E+00  0.5378E+02
     -3.030  0.0000E+00  0.5378E+02
     -3.015  0.0000E+00  0.5378E+02
     -3.001  0.0000E+00  0.5378E+02
     -2.986  0.0000E+00  0.5378E+02
     -2.972  0.0000E+00  0.5378E+02
     -2.957  0.0000E+00  0.5378E+02
     -2.943  0.0000E+00  0.5378E+02
     -2.928  0.0000E+00  0.5378E+02
     -2.914  0.0000E+00  0.5378E+02
     -2.899  0.0000E+00  0.5378E+02
     -2.884  0.0000E+00  0.5378E+02
     -2.870  0.0000E+00  0.5378E+02
     -2.855  0.0000E+00  0.5378E+02
     -2.841  0.0000E+00  0.5378E+02
     -2.826  0.0000E+00  0.5378E+02
     -2.812  0.0000E+00  0.5378E+02
     -2.797  0.0000E+00  0.5378E+02
     -2.783  0.0000E+00  0.5378E+02
     -2.768  0.0000E+00  0.5378E+02
     -2.753  0.0000E+00  0.5378E+02
     -2.739  0.0000E+00  0.5378E+02
     -2.724  0.0000E+00  0.5378E+02
     -2.710  0.0000E+00  0.5378E+02
     -2.695  0.0000E+00  0.5378E+02
     -2.681  0.0000E+00  0.5378E+02
     -2.666  0.0000E+00  0.5378E+02
     -2.652  0.0000E+00  0.5378E+02
     -2.637  0.0000E+00  0.5378E+02
     -2.622  0.0000E+00  0.5378E+02
     -2.608  0.0000E+00  0.5378E+02
     -2.593  0.0000E+00  0.5378E+02
     -2.579  0.0000E+00  0.5378E+02
     -2.564  0.0000E+00  0.5378E+02
     -2.550  0.0000E+00  0.5378E+02
     -2.535  0.0000E+00  0.5378E+02
     -2.521  0.0000E+00  0.5378E+02
     -2.506  0.0000E+00  0.5378E+02
     -2.492  0.0000E+00  0.5378E+02
     -2.477  0.0000E+00  0.5378E+02
     -2.462  0.0000E+00  0.5378E+02
     -2.448  0.0000E+00  0.5378E+02
     -2.433  0.0000E+00  0.5378E+02
     -2.419  0.0000E+00  0.5378E+02
     -2.404  0.0000E+00  0.5378E+02
     -2.390  0.0000E+00  0.5378E+02
     -2.375  0.0000E+00  0.5378E+02
     -2.361  0.0000E+00  0.5378E+02
     -2.346  0.0000E+00  0.5378E+02
     -2.331  0.0000E+00  0.5378E+02
     -2.317  0.0000E+00  0.5378E+02
     -2.302  0.0000E+00  0.5378E+02
     -2.288  0.0000E+00  0.5378E+02
     -2.273  0.0000E+00  0.5378E+02
     -2.259  0.7392E-12  0.5378E+02
     -2.244  0.7943E-06  0.5378E+02
     -2.230  0.1420E-01  0.5378E+02
     -2.215  0.5026E+01  0.5385E+02
     -2.200  0.5438E+02  0.5464E+02
     -2.186  0.3132E+02  0.5510E+02
     -2.171  0.8758E+00  0.5511E+02
     -2.157  0.7237E-03  0.5511E+02
     -2.142  0.1217E-07  0.5511E+02
     -2.128  0.3391E-14  0.5511E+02
     -2.113  0.0000E+00  0.5511E+02
     -2.099  0.0000E+00  0.5511E+02
     -2.084  0.0000E+00  0.5511E+02
     -2.069  0.0000E+00  0.5511E+02
     -2.055  0.0000E+00  0.5511E+02
     -2.040  0.0000E+00  0.5511E+02
     -2.026  0.0000E+00  0.5511E+02
     -2.011  0.0000E+00  0.5511E+02
     -1.997  0.0000E+00  0.5511E+02
     -1.982  0.0000E+00  0.5511E+02
     -1.968  0.0000E+00  0.5511E+02
     -1.953  0.0000E+00  0.5511E+02
     -1.939  0.0000E+00  0.5511E+02
     -1.924  0.0000E+00  0.5511E+02
     -1.909  0.0000E+00  0.5511E+02
     -1.895  0.0000E+00  0.5511E+02
     -1.880  0.0000E+00  0.5511E+02
     -1.866  0.0000E+00  0.5511E+02
     -1.851  0.0000E+00  0.5511E+02
     -1.837  0.0000E+00  0.5511E+02
     -1.822  0.0000E+00  0.5511E+02
     -1.808  0.0000E+00  0.5511E+02
     -1.793  0.0000E+00  0.5511E+02
     -1.778  0.0000E+00  0.5511E+02
     -1.764  0.0000E+00  0.5511E+02
     -1.749  0.0000E+00  0.5511E+02
     -1.735  0.0000E+00  0.5511E+02
     -1.720  0.0000E+00  0.5511E+02
     -1.706  0.0000E+00  0.5511E+02
     -1.691  0.0000E+00  0.5511E+02
     -1.677  0.0000E+00  0.5511E+02
     -1.662  0.0000E+00  0.5511E+02
     -1.647  0.0000E+00  0.5511E+02
     -1.633  0.0000E+00  0.5511E+02
     -1.618  0.0000E+00  0.5511E+02
     -1.604  0.0000E+00  0.5511E+02
     -1.589  0.0000E+00  0.5511E+02
     -1.575  0.0000E+00  0.5511E+02
     -1.560  0.0000E+00  0.5511E+02
     -1.546  0.0000E+00  0.5511E+02
     -1.531  0.0000E+00  0.5511E+02
     -1.516  0.0000E+00  0.5511E+02
     -1.502  0.0000E+00  0.5511E+02
     -1.487  0.0000E+00  0.5511E+02
     -1.473  0.0000E+00  0.5511E+02
     -1.458  0.0000E+00  0.5511E+02
     -1.444  0.0000E+00  0.5511E+02
     -1.429  0.0000E+00  0.5511E+02
     -1.415  0.0000E+00  0.5511E+02
     -1.400  0.0000E+00  0.5511E+02
     -1.386  0.0000E+00  0.5511E+02
     -1.371  0.0000E+00  0.5511E+02
     -1.356  0.0000E+00  0.5511E+02
     -1.342  0.0000E+00  0.5511E+02
     -1.327  0.0000E+00  0.5511E+02
     -1.313  0.0000E+00  0.5511E+02
     -1.298  0.8112E-11  0.5511E+02
     -1.284  0.3576E-05  0.5511E+02
     -1.269  0.2722E-01  0.5511E+02
     -1.255  0.4253E+01  0.5517E+02
     -1.240  0.2115E+02  0.5548E+02
     -1.225  0.5072E+01  0.5555E+02
     -1.211  0.3999E-01  0.5556E+02
     -1.196  0.6579E-05  0.5556E+02
     -1.182  0.1880E-10  0.5556E+02
     -1.167  0.0000E+00  0.5556E+02
     -1.153  0.0000E+00  0.5556E+02
     -1.138  0.0000E+00  0.5556E+02
     -1.124  0.0000E+00  0.5556E+02
     -1.109  0.0000E+00  0.5556E+02
     -1.094  0.0000E+00  0.5556E+02
     -1.080  0.0000E+00  0.5556E+02
     -1.065  0.0000E+00  0.5556E+02
     -1.051  0.0000E+00  0.5556E+02
     -1.036  0.0000E+00  0.5556E+02
     -1.022  0.0000E+00  0.5556E+02
     -1.007  0.0000E+00  0.5556E+02
     -0.993  0.0000E+00  0.5556E+02
     -0.978  0.0000E+00  0.5556E+02
     -0.963  0.0000E+00  0.5556E+02
     -0.949  0.0000E+00  0.5556E+02
     -0.934  0.0000E+00  0.5556E+02
     -0.920  0.0000E+00  0.5556E+02
     -0.905  0.0000E+00  0.5556E+02
     -0.891  0.0000E+00  0.5556E+02
     -0.876  0.0000E+00  0.5556E+02
     -0.862  0.0000E+00  0.5556E+02
     -0.847  0.0000E+00  0.5556E+02
     -0.832  0.0000E+00  0.5556E+02
     -0.818  0.0000E+00  0.5556E+02
     -0.803  0.0000E+00  0.5556E+02
     -0.789  0.0000E+00  0.5556E+02
     -0.774  0.0000E+00  0.5556E+02
     -0.760  0.0000E+00  0.5556E+02
     -0.745  0.0000E+00  0.5556E+02
     -0.731  0.0000E+00  0.5556E+02
     -0.716  0.0000E+00  0.5556E+02
     -0.702  0.0000E+00  0.5556E+02
     -0.687  0.0000E+00  0.5556E+02
     -0.672  0.0000E+00  0.5556E+02
     -0.658  0.0000E+00  0.5556E+02
     -0.643  0.0000E+00  0.5556E+02
     -0.629  0.0000E+00  0.5556E+02
     -0.614  0.0000E+00  0.5556E+02
     -0.600  0.0000E+00  0.5556E+02
     -0.585  0.0000E+00  0.5556E+02
     -0.571  0.0000E+00  0.5556E+02
     -0.556  0.0000E+00  0.5556E+02
     -0.541  0.3152E-09  0.5556E+02
     -0.527  0.5235E-04  0.5556E+02
     -0.512  0.1485E+00  0.5556E+02
     -0.498  0.8984E+01  0.5569E+02
     -0.483  0.1949E+02  0.5597E+02
     -0.469  0.1916E+01  0.5600E+02
     -0.454  0.5069E-02  0.5600E+02
     -0.440  0.2492E-06  0.5600E+02
     -0.425  0.2000E-12  0.5600E+02
     -0.410  0.0000E+00  0.5600E+02
     -0.396  0.0000E+00  0.5600E+02
     -0.381  0.0000E+00  0.5600E+02
     -0.367  0.0000E+00  0.5600E+02
     -0.352  0.0000E+00  0.5600E+02
     -0.338  0.0000E+00  0.5600E+02
     -0.323  0.0000E+00  0.5600E+02
     -0.309  0.3391E-14  0.5600E+02
     -0.294  0.1004E-07  0.5600E+02
     -0.279  0.5837E-03  0.5600E+02
     -0.265  0.6012E+00  0.5601E+02
     -0.250  0.1465E+02  0.5622E+02
     -0.236  0.1468E+02  0.5644E+02
     -0.221  0.6065E+00  0.5644E+02
     -0.207  0.5928E-03  0.5644E+02
     -0.192  0.1027E-07  0.5644E+02
     -0.178  0.3391E-14  0.5644E+02
     -0.163  0.0000E+00  0.5644E+02
     -0.149  0.0000E+00  0.5644E+02
     -0.134  0.0000E+00  0.5644E+02
     -0.119  0.0000E+00  0.5644E+02
     -0.105  0.0000E+00  0.5644E+02
     -0.090  0.0000E+00  0.5644E+02
     -0.076  0.0000E+00  0.5644E+02
     -0.061  0.0000E+00  0.5644E+02
     -0.047  0.0000E+00  0.5644E+02
     -0.032  0.0000E+00  0.5644E+02
     -0.018  0.0000E+00  0.5644E+02
     -0.003  0.0000E+00  0.5644E+02
      0.012  0.0000E+00  0.5644E+02
      0.026  0.0000E+00  0.5644E+02
      0.041  0.0000E+00  0.5644E+02
      0.055  0.0000E+00  0.5644E+02
      0.070  0.0000E+00  0.5644E+02
      0.084  0.0000E+00  0.5644E+02
      0.099  0.0000E+00  0.5644E+02
      0.113  0.0000E+00  0.5644E+02
      0.128  0.0000E+00  0.5644E+02
      0.143  0.0000E+00  0.5644E+02
      0.157  0.0000E+00  0.5644E+02
      0.172  0.0000E+00  0.5644E+02
      0.186  0.0000E+00  0.5644E+02
      0.201  0.0000E+00  0.5644E+02
      0.215  0.0000E+00  0.5644E+02
      0.230  0.0000E+00  0.5644E+02
      0.244  0.0000E+00  0.5644E+02
      0.259  0.0000E+00  0.5644E+02
      0.274  0.0000E+00  0.5644E+02
      0.288  0.0000E+00  0.5644E+02
      0.303  0.0000E+00  0.5644E+02
      0.317  0.0000E+00  0.5644E+02
      0.332  0.0000E+00  0.5644E+02
      0.346  0.0000E+00  0.5644E+02
      0.361  0.0000E+00  0.5644E+02
      0.375  0.0000E+00  0.5644E+02
      0.390  0.0000E+00  0.5644E+02
      0.404  0.0000E+00  0.5644E+02
      0.419  0.0000E+00  0.5644E+02
      0.434  0.0000E+00  0.5644E+02
      0.448  0.0000E+00  0.5644E+02
      0.463  0.0000E+00  0.5644E+02
      0.477  0.0000E+00  0.5644E+02
      0.492  0.0000E+00  0.5644E+02
      0.506  0.0000E+00  0.5644E+02
      0.521  0.0000E+00  0.5644E+02
      0.535  0.0000E+00  0.5644E+02
      0.550  0.0000E+00  0.5644E+02
      0.565  0.0000E+00  0.5644E+02
      0.579  0.0000E+00  0.5644E+02
      0.594  0.0000E+00  0.5644E+02
      0.608  0.0000E+00  0.5644E+02
      0.623  0.0000E+00  0.5644E+02
      0.637  0.0000E+00  0.5644E+02
      0.652  0.0000E+00  0.5644E+02
      0.666  0.0000E+00  0.5644E+02
      0.681  0.0000E+00  0.5644E+02
      0.696  0.0000E+00  0.5644E+02
      0.710  0.0000E+00  0.5644E+02
      0.725  0.0000E+00  0.5644E+02
      0.739  0.0000E+00  0.5644E+02
      0.754  0.0000E+00  0.5644E+02
      0.768  0.0000E+00  0.5644E+02
      0.783  0.0000E+00  0.5644E+02
      0.797  0.0000E+00  0.5644E+02
      0.812  0.0000E+00  0.5644E+02
      0.827  0.0000E+00  0.5644E+02
      0.841  0.0000E+00  0.5644E+02
      0.856  0.0000E+00  0.5644E+02
      0.870  0.0000E+00  0.5644E+02
      0.885  0.0000E+00  0.5644E+02
      0.899  0.0000E+00  0.5644E+02
      0.914  0.0000E+00  0.5644E+02
      0.928  0.0000E+00  0.5644E+02
      0.943  0.0000E+00  0.5644E+02
      0.958  0.0000E+00  0.5644E+02
      0.972  0.0000E+00  0.5644E+02
      0.987  0.0000E+00  0.5644E+02
      1.001  0.0000E+00  0.5644E+02
      1.016  0.0000E+00  0.5644E+02
      1.030  0.0000E+00  0.5644E+02
      1.045  0.0000E+00  0.5644E+02
      1.059  0.0000E+00  0.5644E+02
      1.074  0.0000E+00  0.5644E+02
      1.088  0.0000E+00  0.5644E+02
      1.103  0.5574E-11  0.5644E+02
      1.118  0.3783E-05  0.5644E+02
      1.132  0.4306E-01  0.5645E+02
      1.147  0.9567E+01  0.5658E+02
      1.161  0.6259E+02  0.5750E+02
      1.176  0.1922E+02  0.5777E+02
      1.190  0.1979E+00  0.5778E+02
      1.205  0.4213E-04  0.5778E+02
      1.219  0.1528E-09  0.5778E+02
      1.234  0.0000E+00  0.5778E+02
      1.249  0.0000E+00  0.5778E+02
      1.263  0.0000E+00  0.5778E+02
      1.278  0.3492E-11  0.5778E+02
      1.292  0.1700E-05  0.5778E+02
      1.307  0.1375E-01  0.5778E+02
      1.321  0.2183E+01  0.5781E+02
      1.336  0.1094E+02  0.5797E+02
      1.350  0.9832E+01  0.5811E+02
      1.365  0.7274E+01  0.5822E+02
      1.380  0.2918E+00  0.5822E+02
      1.394  0.2767E-03  0.5822E+02
      1.409  0.4642E-08  0.5822E+02
      1.423  0.0000E+00  0.5822E+02
      1.438  0.0000E+00  0.5822E+02
      1.452  0.0000E+00  0.5822E+02
      1.467  0.0000E+00  0.5822E+02
      1.481  0.0000E+00  0.5822E+02
      1.496  0.0000E+00  0.5822E+02
      1.511  0.0000E+00  0.5822E+02
      1.525  0.0000E+00  0.5822E+02
      1.540  0.0000E+00  0.5822E+02
      1.554  0.0000E+00  0.5822E+02
      1.569  0.0000E+00  0.5822E+02
      1.583  0.0000E+00  0.5822E+02
      1.598  0.3899E-13  0.5822E+02
      1.612  0.6191E-07  0.5822E+02
      1.627  0.1594E-02  0.5822E+02
      1.641  0.7538E+00  0.5823E+02
      1.656  0.9298E+01  0.5837E+02
      1.671  0.5112E+01  0.5844E+02
      1.685  0.1042E+00  0.5844E+02
      1.700  0.4628E-04  0.5844E+02
      1.714  0.3537E-09  0.5844E+02
      1.729  0.0000E+00  0.5844E+02
      1.743  0.0000E+00  0.5844E+02
      1.758  0.0000E+00  0.5844E+02
      1.772  0.0000E+00  0.5844E+02
      1.787  0.0000E+00  0.5844E+02
      1.802  0.0000E+00  0.5844E+02
      1.816  0.0000E+00  0.5844E+02
      1.831  0.0000E+00  0.5844E+02
      1.845  0.0000E+00  0.5844E+02
      1.860  0.0000E+00  0.5844E+02
      1.874  0.0000E+00  0.5844E+02
      1.889  0.0000E+00  0.5844E+02
      1.903  0.0000E+00  0.5844E+02
      1.918  0.3998E-10  0.5844E+02
      1.933  0.9867E-05  0.5844E+02
      1.947  0.4113E-01  0.5845E+02
      1.962  0.3537E+01  0.5850E+02
      1.976  0.1063E+02  0.5865E+02
      1.991  0.8912E+01  0.5878E+02
      2.005  0.7144E+01  0.5888E+02
      2.020  0.2765E+00  0.5889E+02
      2.034  0.2514E-03  0.5889E+02
      2.049  0.4037E-08  0.5889E+02
      2.064  0.0000E+00  0.5889E+02
      2.078  0.0000E+00  0.5889E+02
      2.093  0.0000E+00  0.5889E+02
      2.107  0.0000E+00  0.5889E+02
      2.122  0.0000E+00  0.5889E+02
      2.136  0.0000E+00  0.5889E+02
      2.151  0.0000E+00  0.5889E+02
      2.165  0.0000E+00  0.5889E+02
      2.180  0.0000E+00  0.5889E+02
      2.194  0.0000E+00  0.5889E+02
      2.209  0.0000E+00  0.5889E+02
      2.224  0.0000E+00  0.5889E+02
      2.238  0.0000E+00  0.5889E+02
      2.253  0.0000E+00  0.5889E+02
      2.267  0.0000E+00  0.5889E+02
      2.282  0.0000E+00  0.5889E+02
      2.296  0.0000E+00  0.5889E+02
      2.311  0.0000E+00  0.5889E+02
      2.325  0.0000E+00  0.5889E+02
      2.340  0.0000E+00  0.5889E+02
      2.355  0.0000E+00  0.5889E+02
      2.369  0.0000E+00  0.5889E+02
      2.384  0.0000E+00  0.5889E+02
      2.398  0.0000E+00  0.5889E+02
      2.413  0.0000E+00  0.5889E+02
      2.427  0.0000E+00  0.5889E+02
      2.442  0.0000E+00  0.5889E+02
      2.456  0.0000E+00  0.5889E+02
      2.471  0.0000E+00  0.5889E+02
      2.486  0.0000E+00  0.5889E+02
      2.500  0.4942E-09  0.5889E+02
      2.515  0.5853E-04  0.5889E+02
      2.529  0.1197E+00  0.5889E+02
      2.544  0.5379E+01  0.5897E+02
      2.558  0.9090E+01  0.5910E+02
      2.573  0.6793E+00  0.5911E+02
      2.587  0.1308E-02  0.5911E+02
      2.602  0.4895E-07  0.5911E+02
      2.617  0.2515E-03  0.5911E+02
      2.631  0.3731E+00  0.5912E+02
      2.646  0.1257E+02  0.5930E+02
      2.660  0.1665E+02  0.5954E+02
      2.675  0.1053E+01  0.5956E+02
      2.689  0.7884E+01  0.5967E+02
      2.704  0.2040E+02  0.5997E+02
      2.718  0.1756E+02  0.6022E+02
      2.733  0.4015E+02  0.6081E+02
      2.748  0.5492E+01  0.6089E+02
      2.762  0.6454E+00  0.6090E+02
      2.777  0.2245E+02  0.6122E+02
      2.791  0.3526E+02  0.6174E+02
      2.806  0.2742E+01  0.6178E+02
      2.820  0.6333E-02  0.6178E+02
      2.835  0.2969E-06  0.6178E+02
      2.849  0.2373E-12  0.6178E+02
      2.864  0.0000E+00  0.6178E+02
      2.878  0.0000E+00  0.6178E+02
      2.893  0.0000E+00  0.6178E+02
      2.908  0.0000E+00  0.6178E+02
      2.922  0.0000E+00  0.6178E+02
      2.937  0.0000E+00  0.6178E+02
      2.951  0.0000E+00  0.6178E+02
      2.966  0.0000E+00  0.6178E+02
      2.980  0.0000E+00  0.6178E+02
      2.995  0.0000E+00  0.6178E+02
      3.009  0.0000E+00  0.6178E+02
      3.024  0.1865E-13  0.6178E+02
      3.039  0.3601E-07  0.6178E+02
      3.053  0.1110E-02  0.6178E+02
      3.068  0.6229E+00  0.6179E+02
      3.082  0.8912E+01  0.6192E+02
      3.097  0.5600E+01  0.6200E+02
      3.111  0.1337E+00  0.6200E+02
      3.126  0.7077E-04  0.6200E+02
      3.140  0.6483E-09  0.6200E+02
      3.155  0.0000E+00  0.6200E+02
      3.170  0.0000E+00  0.6200E+02
      3.184  0.0000E+00  0.6200E+02
      3.199  0.0000E+00  0.6200E+02
      3.213  0.3560E-13  0.6200E+02
      3.228  0.6852E-07  0.6200E+02
      3.242  0.2147E-02  0.6200E+02
      3.257  0.1224E+01  0.6202E+02
      3.271  0.1775E+02  0.6228E+02
      3.286  0.1129E+02  0.6244E+02
      3.301  0.2736E+00  0.6244E+02
      3.315  0.1471E-03  0.6244E+02
      3.330  0.1370E-08  0.6244E+02
      3.344  0.0000E+00  0.6244E+02
      3.359  0.0000E+00  0.6244E+02
      3.373  0.0000E+00  0.6244E+02
      3.388  0.0000E+00  0.6244E+02
      3.402  0.0000E+00  0.6244E+02
      3.417  0.0000E+00  0.6244E+02
      3.431  0.0000E+00  0.6244E+02
      3.446  0.0000E+00  0.6244E+02
      3.461  0.0000E+00  0.6244E+02
      3.475  0.0000E+00  0.6244E+02
      3.490  0.0000E+00  0.6244E+02
      3.504  0.0000E+00  0.6244E+02
      3.519  0.0000E+00  0.6244E+02
      3.533  0.0000E+00  0.6244E+02
      3.548  0.0000E+00  0.6244E+02
      3.562  0.0000E+00  0.6244E+02
      3.577  0.0000E+00  0.6244E+02
      3.592  0.0000E+00  0.6244E+02
      3.606  0.0000E+00  0.6244E+02
      3.621  0.0000E+00  0.6244E+02
      3.635  0.0000E+00  0.6244E+02
      3.650  0.0000E+00  0.6244E+02
      3.664  0.0000E+00  0.6244E+02
      3.679  0.0000E+00  0.6244E+02
      3.693  0.0000E+00  0.6244E+02
      3.708  0.0000E+00  0.6244E+02
      3.723  0.0000E+00  0.6244E+02
      3.737  0.0000E+00  0.6244E+02
      3.752  0.0000E+00  0.6244E+02
      3.766  0.0000E+00  0.6244E+02
      3.781  0.3670E-10  0.6244E+02
      3.795  0.9280E-05  0.6244E+02
      3.810  0.3961E-01  0.6245E+02
      3.824  0.3481E+01  0.6250E+02
      3.839  0.1033E+02  0.6265E+02
      3.854  0.1418E+01  0.6267E+02
      3.868  0.5549E-02  0.6267E+02
      3.883  0.4130E-06  0.6267E+02
      3.897  0.5052E-12  0.6267E+02
      3.912  0.1695E-14  0.6267E+02
      3.926  0.6489E-08  0.6267E+02
      3.941  0.4893E-03  0.6267E+02
      3.955  0.7378E+00  0.6268E+02
      3.970  0.3036E+02  0.6312E+02
      3.984  0.6368E+02  0.6405E+02
      3.999  0.6691E+02  0.6502E+02
      4.014  0.2131E+02  0.6533E+02
      4.028  0.2488E+00  0.6533E+02
      4.043  0.1406E-02  0.6533E+02
      4.057  0.9512E+00  0.6535E+02
      4.072  0.1667E+02  0.6559E+02
      4.086  0.1255E+02  0.6577E+02
      4.101  0.3717E+00  0.6578E+02
      4.115  0.2505E-03  0.6578E+02
      4.130  0.2955E-08  0.6578E+02
      4.145  0.0000E+00  0.6578E+02
      4.159  0.0000E+00  0.6578E+02
      4.174  0.0000E+00  0.6578E+02
      4.188  0.0000E+00  0.6578E+02
      4.203  0.0000E+00  0.6578E+02
      4.217  0.0000E+00  0.6578E+02
      4.232  0.0000E+00  0.6578E+02
      4.246  0.0000E+00  0.6578E+02
      4.261  0.0000E+00  0.6578E+02
      4.276  0.1378E-08  0.6578E+02
      4.290  0.1477E-03  0.6578E+02
      4.305  0.2742E+00  0.6578E+02
      4.319  0.1130E+02  0.6595E+02
      4.334  0.1774E+02  0.6620E+02
      4.348  0.1222E+01  0.6622E+02
      4.363  0.2140E-02  0.6622E+02
      4.377  0.6816E-07  0.6622E+02
      4.392  0.3391E-13  0.6622E+02
      4.407  0.0000E+00  0.6622E+02
      4.421  0.0000E+00  0.6622E+02
      4.436  0.0000E+00  0.6622E+02
      4.450  0.0000E+00  0.6622E+02
      4.465  0.0000E+00  0.6622E+02
      4.479  0.0000E+00  0.6622E+02
      4.494  0.0000E+00  0.6622E+02
      4.508  0.0000E+00  0.6622E+02
      4.523  0.0000E+00  0.6622E+02
      4.538  0.0000E+00  0.6622E+02
      4.552  0.0000E+00  0.6622E+02
      4.567  0.0000E+00  0.6622E+02
      4.581  0.0000E+00  0.6622E+02
      4.596  0.6253E-10  0.6622E+02
      4.610  0.1655E-04  0.6622E+02
      4.625  0.7384E-01  0.6622E+02
      4.639  0.6759E+01  0.6632E+02
      4.654  0.2074E+02  0.6662E+02
      4.668  0.2981E+01  0.6667E+02
      4.683  0.7996E+01  0.6678E+02
      4.698  0.6279E+02  0.6770E+02
      4.712  0.3991E+02  0.6828E+02
      4.727  0.1120E+02  0.6844E+02
      4.741  0.2501E+00  0.6844E+02
      4.756  0.1267E-03  0.6844E+02
      4.770  0.6838E-02  0.6844E+02
      4.785  0.1570E+01  0.6847E+02
      4.799  0.1044E+02  0.6862E+02
      4.814  0.3225E+01  0.6867E+02
      4.829  0.3307E-01  0.6867E+02
      4.843  0.6920E-05  0.6867E+02
      4.858  0.2437E-10  0.6867E+02
      4.872  0.0000E+00  0.6867E+02
      4.887  0.0000E+00  0.6867E+02
      4.901  0.0000E+00  0.6867E+02
      4.916  0.0000E+00  0.6867E+02
      4.930  0.0000E+00  0.6867E+02
      4.945  0.0000E+00  0.6867E+02
      4.960  0.0000E+00  0.6867E+02
      4.974  0.0000E+00  0.6867E+02
      4.989  0.0000E+00  0.6867E+02
      5.003  0.0000E+00  0.6867E+02
      5.018  0.0000E+00  0.6867E+02
      5.032  0.0000E+00  0.6867E+02
      5.047  0.5205E-10  0.6867E+02
      5.061  0.1957E-04  0.6867E+02
      5.076  0.1237E+00  0.6867E+02
      5.091  0.1570E+02  0.6890E+02
      5.105  0.6362E+02  0.6982E+02
      5.120  0.1211E+02  0.7000E+02
      5.134  0.7010E-01  0.7000E+02
      5.149  0.7979E-05  0.7000E+02
      5.163  0.1163E-05  0.7000E+02
      5.178  0.1385E-01  0.7000E+02
      5.192  0.3159E+01  0.7005E+02
      5.207  0.2088E+02  0.7035E+02
      5.221  0.7233E+01  0.7046E+02
      5.236  0.1605E+02  0.7069E+02
      5.251  0.1330E+02  0.7088E+02
      5.265  0.4419E+00  0.7089E+02
      5.280  0.3381E-03  0.7089E+02
      5.294  0.4540E-08  0.7089E+02
      5.309  0.0000E+00  0.7089E+02
      5.323  0.0000E+00  0.7089E+02
      5.338  0.0000E+00  0.7089E+02
      5.352  0.0000E+00  0.7089E+02
      5.367  0.0000E+00  0.7089E+02
      5.382  0.0000E+00  0.7089E+02
      5.396  0.0000E+00  0.7089E+02
      5.411  0.0000E+00  0.7089E+02
      5.425  0.0000E+00  0.7089E+02
      5.440  0.0000E+00  0.7089E+02
      5.454  0.1865E-13  0.7089E+02
      5.469  0.4952E-07  0.7089E+02
      5.483  0.2122E-02  0.7089E+02
      5.498  0.1664E+01  0.7091E+02
      5.513  0.3444E+02  0.7141E+02
      5.527  0.4675E+02  0.7209E+02
      5.542  0.8658E+01  0.7222E+02
      5.556  0.1040E+00  0.7222E+02
      5.571  0.2868E-04  0.7222E+02
      5.585  0.2834E-05  0.7222E+02
      5.600  0.3625E-01  0.7222E+02
      5.614  0.8861E+01  0.7235E+02
      5.629  0.6222E+02  0.7326E+02
      5.644  0.2028E+02  0.7355E+02
      5.658  0.2221E+00  0.7356E+02
      5.673  0.4999E-04  0.7356E+02
      5.687  0.1901E-09  0.7356E+02
      5.702  0.1350E-10  0.7356E+02
      5.716  0.5487E-05  0.7356E+02
      5.731  0.3718E-01  0.7356E+02
      5.745  0.5009E+01  0.7363E+02
      5.760  0.2125E+02  0.7394E+02
      5.774  0.4219E+01  0.7400E+02
      5.789  0.2553E-01  0.7400E+02
      5.804  0.3026E-05  0.7400E+02
      5.818  0.5947E-11  0.7400E+02
      5.833  0.0000E+00  0.7400E+02
      5.847  0.0000E+00  0.7400E+02
      5.862  0.0000E+00  0.7400E+02
      5.876  0.0000E+00  0.7400E+02
      5.891  0.0000E+00  0.7400E+02
      5.905  0.0000E+00  0.7400E+02
      5.920  0.0000E+00  0.7400E+02
      5.935  0.0000E+00  0.7400E+02
      5.949  0.4535E-10  0.7400E+02
      5.964  0.1450E-04  0.7400E+02
      5.978  0.8214E-01  0.7400E+02
      5.993  0.1006E+02  0.7415E+02
      6.007  0.4211E+02  0.7476E+02
      6.022  0.8767E+01  0.7489E+02
      6.036  0.8355E+00  0.7490E+02
      6.051  0.3301E+02  0.7538E+02
      6.066  0.5391E+02  0.7617E+02
      6.080  0.6439E+01  0.7626E+02
      6.095  0.4817E+02  0.7696E+02
      6.109  0.3962E+02  0.7754E+02
      6.124  0.1316E+01  0.7756E+02
      6.138  0.1021E-02  0.7756E+02
      6.153  0.1410E-07  0.7756E+02
      6.167  0.0000E+00  0.7756E+02
      6.182  0.0000E+00  0.7756E+02
      6.197  0.0000E+00  0.7756E+02
      6.211  0.0000E+00  0.7756E+02
      6.226  0.0000E+00  0.7756E+02
      6.240  0.0000E+00  0.7756E+02
      6.255  0.0000E+00  0.7756E+02
      6.269  0.0000E+00  0.7756E+02
      6.284  0.0000E+00  0.7756E+02
      6.298  0.0000E+00  0.7756E+02
      6.313  0.0000E+00  0.7756E+02
      6.328  0.4008E-11  0.7756E+02
      6.342  0.3043E-05  0.7756E+02
      6.357  0.3803E-01  0.7756E+02
      6.371  0.9076E+01  0.7769E+02
      6.386  0.6238E+02  0.7860E+02
      6.400  0.1991E+02  0.7889E+02
      6.415  0.2122E+00  0.7889E+02
      6.429  0.4631E-04  0.7889E+02
      6.444  0.1737E-09  0.7889E+02
      6.458  0.2019E-05  0.7889E+02
      6.473  0.1974E-01  0.7889E+02
      6.488  0.3740E+01  0.7894E+02
      6.502  0.2115E+02  0.7925E+02
      6.517  0.5586E+01  0.7933E+02
      6.531  0.4748E-01  0.7933E+02
      6.546  0.8110E-05  0.7933E+02
      6.560  0.2319E-10  0.7933E+02
      6.575  0.0000E+00  0.7933E+02
      6.589  0.0000E+00  0.7933E+02
      6.604  0.0000E+00  0.7933E+02
      6.619  0.0000E+00  0.7933E+02
      6.633  0.4316E-10  0.7933E+02
      6.648  0.1271E-04  0.7933E+02
      6.662  0.6387E-01  0.7933E+02
      6.677  0.7197E+01  0.7944E+02
      6.691  0.3733E+02  0.7998E+02
      6.706  0.1608E+02  0.8022E+02
      6.720  0.4122E+00  0.8022E+02
      6.735  0.2845E-03  0.8022E+02
      6.750  0.3003E-01  0.8022E+02
      6.764  0.8084E+01  0.8034E+02
      6.779  0.6157E+02  0.8124E+02
      6.793  0.2167E+02  0.8155E+02
      6.808  0.2598E+00  0.8156E+02
      6.822  0.6447E-04  0.8156E+02
      6.837  0.2707E-09  0.8156E+02
      6.851  0.0000E+00  0.8156E+02
      6.866  0.0000E+00  0.8156E+02
      6.881  0.0000E+00  0.8156E+02
      6.895  0.0000E+00  0.8156E+02
      6.910  0.0000E+00  0.8156E+02
      6.924  0.0000E+00  0.8156E+02
      6.939  0.0000E+00  0.8156E+02
      6.953  0.0000E+00  0.8156E+02
      6.968  0.0000E+00  0.8156E+02
      6.982  0.0000E+00  0.8156E+02
      6.997  0.0000E+00  0.8156E+02
      7.011  0.0000E+00  0.8156E+02
      7.026  0.0000E+00  0.8156E+02
      7.041  0.8477E-15  0.8156E+02
      7.055  0.2817E-08  0.8156E+02
      7.070  0.1962E-03  0.8156E+02
      7.084  0.2405E+00  0.8156E+02
      7.099  0.6833E+01  0.8166E+02
      7.113  0.7820E+01  0.8177E+02
      7.128  0.3762E+00  0.8178E+02
      7.142  0.4372E-03  0.8178E+02
      7.157  0.9068E-08  0.8178E+02
      7.172  0.3391E-14  0.8178E+02
      7.186  0.0000E+00  0.8178E+02
      7.201  0.0000E+00  0.8178E+02
      7.215  0.0000E+00  0.8178E+02
      7.230  0.0000E+00  0.8178E+02
      7.244  0.0000E+00  0.8178E+02
      7.259  0.0000E+00  0.8178E+02
      7.273  0.0000E+00  0.8178E+02
      7.288  0.2546E-08  0.8178E+02
      7.303  0.2265E-03  0.8178E+02
      7.317  0.3513E+00  0.8178E+02
      7.332  0.1232E+02  0.8196E+02
      7.346  0.1687E+02  0.8221E+02
      7.361  0.1184E+01  0.8222E+02
      7.375  0.9853E+01  0.8237E+02
      7.390  0.2109E+02  0.8268E+02
      7.404  0.2162E+02  0.8299E+02
      7.419  0.1320E+02  0.8318E+02
      7.434  0.2138E+02  0.8349E+02
      7.448  0.4274E+01  0.8356E+02
      7.463  0.2627E-01  0.8356E+02
      7.477  0.6158E-01  0.8356E+02
      7.492  0.1135E+02  0.8372E+02
      7.506  0.6337E+02  0.8464E+02
      7.521  0.1670E+02  0.8489E+02
      7.535  0.1437E+00  0.8489E+02
      7.550  0.2531E-04  0.8489E+02
      7.564  0.7938E-10  0.8489E+02
      7.579  0.2611E-05  0.8489E+02
      7.594  0.3444E-01  0.8489E+02
      7.608  0.8650E+01  0.8502E+02
      7.623  0.6207E+02  0.8592E+02
      7.637  0.2064E+02  0.8622E+02
      7.652  0.2470E+00  0.8622E+02
      7.666  0.4609E+01  0.8629E+02
      7.681  0.3965E+02  0.8687E+02
      7.695  0.1655E+02  0.8711E+02
      7.710  0.2608E+00  0.8711E+02
      7.725  0.9410E-04  0.8711E+02
      7.739  0.1699E-02  0.8711E+02
      7.754  0.7791E+00  0.8712E+02
      7.768  0.9363E+01  0.8726E+02
      7.783  0.5027E+01  0.8733E+02
      7.797  0.9964E-01  0.8733E+02
      7.812  0.4289E-04  0.8733E+02
      7.826  0.3173E-09  0.8733E+02
      7.841  0.0000E+00  0.8733E+02
      7.856  0.0000E+00  0.8733E+02
      7.870  0.0000E+00  0.8733E+02
      7.885  0.0000E+00  0.8733E+02
      7.899  0.0000E+00  0.8733E+02
      7.914  0.0000E+00  0.8733E+02
      7.928  0.0000E+00  0.8733E+02
      7.943  0.0000E+00  0.8733E+02
      7.957  0.0000E+00  0.8733E+02
      7.972  0.0000E+00  0.8733E+02
      7.987  0.0000E+00  0.8733E+02
      8.001  0.0000E+00  0.8733E+02
      8.016  0.0000E+00  0.8733E+02
      8.030  0.0000E+00  0.8733E+02
      8.045  0.0000E+00  0.8733E+02
      8.059  0.0000E+00  0.8733E+02
      8.074  0.0000E+00  0.8733E+02
      8.088  0.0000E+00  0.8733E+02
      8.103  0.0000E+00  0.8733E+02
      8.118  0.0000E+00  0.8733E+02
      8.132  0.0000E+00  0.8733E+02
      8.147  0.1465E-10  0.8733E+02
      8.161  0.7625E-05  0.8733E+02
      8.176  0.6702E-01  0.8733E+02
      8.190  0.1175E+02  0.8751E+02
      8.205  0.6339E+02  0.8843E+02
      8.219  0.1628E+02  0.8866E+02
      8.234  0.3029E+00  0.8867E+02
      8.248  0.9367E+01  0.8881E+02
      8.263  0.1922E+02  0.8909E+02
      8.278  0.1779E+01  0.8911E+02
      8.292  0.4389E-02  0.8911E+02
      8.307  0.2014E-03  0.8911E+02
      8.321  0.2606E+00  0.8911E+02
      8.336  0.9350E+01  0.8925E+02
      8.350  0.1849E+02  0.8952E+02
      8.365  0.6633E+01  0.8962E+02
      8.379  0.9978E+01  0.8976E+02
      8.394  0.1094E+01  0.8978E+02
      8.409  0.5081E-01  0.8978E+02
      8.423  0.1010E+02  0.8993E+02
      8.438  0.6299E+02  0.9084E+02
      8.452  0.1831E+02  0.9111E+02
      8.467  0.1746E+00  0.9111E+02
      8.481  0.3379E-04  0.9111E+02
      8.496  0.1099E-09  0.9111E+02
      8.510  0.9155E-13  0.9111E+02
      8.525  0.1629E-06  0.9111E+02
      8.540  0.4787E-02  0.9111E+02
      8.554  0.2606E+01  0.9115E+02
      8.569  0.4006E+02  0.9173E+02
      8.583  0.4332E+02  0.9236E+02
      8.598  0.5585E+01  0.9244E+02
      8.612  0.3843E-01  0.9244E+02
      8.627  0.5720E-05  0.9244E+02
      8.641  0.1300E-09  0.9244E+02
      8.656  0.2103E-04  0.9244E+02
      8.671  0.6512E-01  0.9245E+02
      8.685  0.4265E+01  0.9251E+02
      8.700  0.9891E+01  0.9265E+02
      8.714  0.1045E+01  0.9267E+02
      8.729  0.3895E+00  0.9267E+02
      8.743  0.1994E+02  0.9296E+02
      8.758  0.4618E+02  0.9363E+02
      8.772  0.2301E+02  0.9397E+02
      8.787  0.2097E+01  0.9400E+02
      8.801  0.6014E-02  0.9400E+02
      8.816  0.3230E-06  0.9400E+02
      8.831  0.2848E-12  0.9400E+02
      8.845  0.1607E-09  0.9400E+02
      8.860  0.4006E-04  0.9400E+02
      8.874  0.1734E+00  0.9400E+02
      8.889  0.1670E+02  0.9425E+02
      8.903  0.6159E+02  0.9514E+02
      8.918  0.1304E+02  0.9533E+02
      8.932  0.1157E+00  0.9533E+02
      8.947  0.2626E-04  0.9533E+02
      8.962  0.1114E-09  0.9533E+02
      8.976  0.0000E+00  0.9533E+02
      8.991  0.0000E+00  0.9533E+02
      9.005  0.0000E+00  0.9533E+02
      9.020  0.0000E+00  0.9533E+02
      9.034  0.0000E+00  0.9533E+02
      9.049  0.0000E+00  0.9533E+02
      9.063  0.0000E+00  0.9533E+02
      9.078  0.0000E+00  0.9533E+02
      9.093  0.0000E+00  0.9533E+02
      9.107  0.0000E+00  0.9533E+02
      9.122  0.0000E+00  0.9533E+02
      9.136  0.0000E+00  0.9533E+02
      9.151  0.7798E-13  0.9533E+02
      9.165  0.1040E-06  0.9533E+02
      9.180  0.2249E-02  0.9533E+02
      9.194  0.9010E+00  0.9535E+02
      9.209  0.9635E+01  0.9549E+02
      9.224  0.4651E+01  0.9555E+02
      9.238  0.2246E+00  0.9556E+02
      9.253  0.5740E+01  0.9564E+02
      9.267  0.8888E+01  0.9577E+02
      9.282  0.5459E+01  0.9585E+02
      9.296  0.9480E+01  0.9599E+02
      9.311  0.8720E+00  0.9600E+02
      9.325  0.7793E+01  0.9611E+02
      9.340  0.4289E+02  0.9674E+02
      9.354  0.2542E+02  0.9711E+02
      9.369  0.1485E+02  0.9732E+02
      9.384  0.6170E+00  0.9733E+02
      9.398  0.6116E-03  0.9733E+02
      9.413  0.5271E-02  0.9733E+02
      9.427  0.3284E+01  0.9738E+02
      9.442  0.5176E+02  0.9813E+02
      9.456  0.3562E+02  0.9865E+02
      9.471  0.9527E+00  0.9867E+02
      9.485  0.5763E-03  0.9867E+02
      9.500  0.6116E-08  0.9867E+02
      9.515  0.0000E+00  0.9867E+02
      9.529  0.0000E+00  0.9867E+02
      9.544  0.0000E+00  0.9867E+02
      9.558  0.4091E-11  0.9867E+02
      9.573  0.3061E-05  0.9867E+02
      9.587  0.3793E-01  0.9867E+02
      9.602  0.9076E+01  0.9880E+02
      9.616  0.7178E+02  0.9984E+02
      9.631  0.8268E+02  0.1010E+03
      9.646  0.1947E+02  0.1013E+03
      9.660  0.2178E+00  0.1013E+03
      9.675  0.3897E+01  0.1014E+03
      9.689  0.2119E+02  0.1017E+03
      9.704  0.5387E+01  0.1018E+03
      9.718  0.4375E-01  0.1018E+03
      9.733  0.7114E-05  0.1018E+03
      9.747  0.1941E-10  0.1018E+03
      9.762  0.1186E-06  0.1018E+03
      9.777  0.3109E-02  0.1018E+03
      9.791  0.1543E+01  0.1018E+03
      9.806  0.2461E+02  0.1022E+03
      9.820  0.3131E+02  0.1026E+03
      9.835  0.3599E+01  0.1027E+03
      9.849  0.1610E-01  0.1027E+03
      9.864  0.1457E-05  0.1027E+03
      9.878  0.4255E-10  0.1027E+03
      9.893  0.9935E-05  0.1027E+03
      9.908  0.4130E-01  0.1027E+03
      9.922  0.3543E+01  0.1027E+03
      9.937  0.1030E+02  0.1029E+03
      9.951  0.1384E+01  0.1029E+03
      9.966  0.5282E-02  0.1029E+03
      9.980  0.3827E-06  0.1029E+03
      9.995  0.4543E-12  0.1029E+03
     10.009  0.0000E+00  0.1029E+03
     10.024  0.7583E-09  0.1029E+03
     10.038  0.1321E-03  0.1029E+03
     10.053  0.3979E+00  0.1029E+03
     10.068  0.2568E+02  0.1033E+03
     10.082  0.5925E+02  0.1041E+03
     10.097  0.6272E+01  0.1042E+03
     10.111  0.1825E-01  0.1042E+03
     10.126  0.1002E-05  0.1042E+03
     10.140  0.1153E-11  0.1042E+03
     10.155  0.3861E-06  0.1042E+03
     10.169  0.9794E-02  0.1042E+03
     10.184  0.4574E+01  0.1043E+03
     10.199  0.5590E+02  0.1051E+03
     10.213  0.3052E+02  0.1055E+03
     10.228  0.6183E+00  0.1056E+03
     10.242  0.5179E+00  0.1056E+03
     10.257  0.1397E+02  0.1058E+03
     10.271  0.1535E+02  0.1060E+03
     10.286  0.7073E+00  0.1060E+03
     10.300  0.7871E-03  0.1060E+03
     10.315  0.1570E-07  0.1060E+03
     10.330  0.5086E-14  0.1060E+03
     10.344  0.0000E+00  0.1060E+03
     10.359  0.1695E-14  0.1060E+03
     10.373  0.5827E-08  0.1060E+03
     10.388  0.4017E-03  0.1060E+03
     10.402  0.4873E+00  0.1060E+03
     10.417  0.1372E+02  0.1062E+03
     10.431  0.1592E+02  0.1064E+03
     10.446  0.1311E+02  0.1066E+03
     10.461  0.3054E+02  0.1071E+03
     10.475  0.3023E+02  0.1075E+03
     10.490  0.2861E+01  0.1076E+03
     10.504  0.7533E-02  0.1076E+03
     10.519  0.3690E-06  0.1076E+03
     10.533  0.6456E-09  0.1076E+03
     10.548  0.1189E-03  0.1076E+03
     10.562  0.3753E+00  0.1076E+03
     10.577  0.2514E+02  0.1079E+03
     10.591  0.5961E+02  0.1088E+03
     10.606  0.6474E+01  0.1089E+03
     10.621  0.1933E-01  0.1089E+03
     10.635  0.1085E-05  0.1089E+03
     10.650  0.1000E-11  0.1089E+03
     10.664  0.0000E+00  0.1089E+03
     10.679  0.0000E+00  0.1089E+03
     10.693  0.0000E+00  0.1089E+03
     10.708  0.0000E+00  0.1089E+03
     10.722  0.3712E-09  0.1089E+03
     10.737  0.5877E-04  0.1089E+03
     10.752  0.1592E+00  0.1089E+03
     10.766  0.9229E+01  0.1090E+03
     10.781  0.1932E+02  0.1093E+03
     10.795  0.1827E+01  0.1093E+03
     10.810  0.4625E-02  0.1093E+03
     10.824  0.2222E-01  0.1093E+03
     10.839  0.3955E+01  0.1094E+03
     10.853  0.2131E+02  0.1097E+03
     10.868  0.2015E+02  0.1100E+03
     10.883  0.6385E+02  0.1109E+03
     10.897  0.2258E+02  0.1113E+03
     10.912  0.6216E+02  0.1122E+03
     10.926  0.1953E+02  0.1124E+03
     10.941  0.2237E+00  0.1124E+03
     10.955  0.3286E+00  0.1124E+03
     10.970  0.1204E+02  0.1126E+03
     10.984  0.1712E+02  0.1129E+03
     10.999  0.1054E+01  0.1129E+03
     11.014  0.1623E-02  0.1129E+03
     11.028  0.6073E-06  0.1129E+03
     11.043  0.8701E-02  0.1129E+03
     11.057  0.2761E+01  0.1129E+03
     11.072  0.4589E+02  0.1136E+03
     11.086  0.1108E+03  0.1152E+03
     11.101  0.2356E+02  0.1156E+03
     11.115  0.7481E+00  0.1156E+03
     11.130  0.1384E+02  0.1158E+03
     11.144  0.1538E+02  0.1160E+03
     11.159  0.7725E+00  0.1160E+03
     11.174  0.1338E-02  0.1160E+03
     11.188  0.4399E+00  0.1160E+03
     11.203  0.1845E+02  0.1163E+03
     11.217  0.5658E+02  0.1171E+03
     11.232  0.1606E+02  0.1173E+03
     11.246  0.1241E+02  0.1175E+03
     11.261  0.6680E+02  0.1185E+03
     11.275  0.2725E+02  0.1189E+03
     11.290  0.5141E+00  0.1189E+03
     11.305  0.2301E-03  0.1189E+03
     11.319  0.1825E-08  0.1189E+03
     11.334  0.0000E+00  0.1189E+03
     11.348  0.0000E+00  0.1189E+03
     11.363  0.0000E+00  0.1189E+03
     11.377  0.0000E+00  0.1189E+03
     11.392  0.0000E+00  0.1189E+03
     11.406  0.4458E-10  0.1189E+03
     11.421  0.1663E-04  0.1189E+03
     11.436  0.1069E+00  0.1189E+03
     11.450  0.1433E+02  0.1191E+03
     11.465  0.6333E+02  0.1200E+03
     11.479  0.1404E+02  0.1202E+03
     11.494  0.2256E+02  0.1206E+03
     11.508  0.6116E+02  0.1214E+03
     11.523  0.7696E+01  0.1216E+03
     11.537  0.2727E-01  0.1216E+03
     11.552  0.1834E-05  0.1216E+03
     11.567  0.2028E-11  0.1216E+03
     11.581  0.0000E+00  0.1216E+03
     11.596  0.0000E+00  0.1216E+03
     11.610  0.0000E+00  0.1216E+03
     11.625  0.0000E+00  0.1216E+03
     11.639  0.0000E+00  0.1216E+03
     11.654  0.3391E-14  0.1216E+03
     11.668  0.1063E-07  0.1216E+03
     11.683  0.4871E-03  0.1216E+03
     11.698  0.3992E+00  0.1216E+03
     11.712  0.7952E+01  0.1217E+03
     11.727  0.6693E+01  0.1218E+03
     11.741  0.2255E+00  0.1218E+03
     11.756  0.1788E-03  0.1218E+03
     11.770  0.2591E-01  0.1218E+03
     11.785  0.4021E+01  0.1218E+03
     11.799  0.2093E+02  0.1221E+03
     11.814  0.5515E+01  0.1222E+03
     11.828  0.5168E-01  0.1222E+03
     11.843  0.1077E-04  0.1222E+03
     11.858  0.1013E-05  0.1222E+03
     11.872  0.1149E-01  0.1222E+03
     11.887  0.2717E+01  0.1223E+03
     11.901  0.2020E+02  0.1226E+03
     11.916  0.7763E+01  0.1227E+03
     11.930  0.7683E+01  0.1228E+03
     11.945  0.3706E+02  0.1233E+03
     11.959  0.5660E+02  0.1241E+03
     11.974  0.5384E+01  0.1242E+03
     11.989  0.8848E-01  0.1242E+03
     12.003  0.6704E+01  0.1243E+03
     12.018  0.2077E+02  0.1246E+03
     12.032  0.2985E+01  0.1247E+03
     12.047  0.1232E-01  0.1247E+03
     12.061  0.9724E-06  0.1247E+03
     12.076  0.1270E-03  0.1247E+03
     12.090  0.2053E+00  0.1247E+03
     12.105  0.1000E+02  0.1248E+03
     12.120  0.3470E+02  0.1253E+03
     12.134  0.4694E+02  0.1260E+03
     12.149  0.1486E+02  0.1262E+03
     12.163  0.1854E+00  0.1262E+03
     12.178  0.4873E-04  0.1262E+03
     12.192  0.2194E-09  0.1262E+03
     12.207  0.0000E+00  0.1262E+03
     12.221  0.0000E+00  0.1262E+03
     12.236  0.0000E+00  0.1262E+03
     12.251  0.0000E+00  0.1262E+03
     12.265  0.0000E+00  0.1262E+03
     12.280  0.0000E+00  0.1262E+03
     12.294  0.0000E+00  0.1262E+03
     12.309  0.1212E-12  0.1262E+03
     12.323  0.1719E-06  0.1262E+03
     12.338  0.3953E-02  0.1262E+03
     12.352  0.1683E+01  0.1262E+03
     12.367  0.1901E+02  0.1265E+03
     12.381  0.1057E+02  0.1267E+03
     12.396  0.9828E+01  0.1268E+03
     12.411  0.4631E+01  0.1269E+03
     12.425  0.8032E-01  0.1269E+03
     12.440  0.2984E-04  0.1269E+03
     12.454  0.1897E-09  0.1269E+03
     12.469  0.9355E-07  0.1269E+03
     12.483  0.3698E-02  0.1269E+03
     12.498  0.2687E+01  0.1269E+03
     12.512  0.4902E+02  0.1276E+03
     12.527  0.3868E+02  0.1282E+03
     12.542  0.1227E+01  0.1282E+03
     12.556  0.9076E-03  0.1282E+03
     12.571  0.1059E-01  0.1282E+03
     12.585  0.2770E+01  0.1283E+03
     12.600  0.2102E+02  0.1286E+03
     12.614  0.3332E+02  0.1291E+03
     12.629  0.5893E+02  0.1299E+03
     12.643  0.6093E+01  0.1300E+03
     12.658  0.1746E-01  0.1300E+03
     12.673  0.9516E-06  0.1300E+03
     12.687  0.8612E-12  0.1300E+03
     12.702  0.0000E+00  0.1300E+03
     12.716  0.0000E+00  0.1300E+03
     12.731  0.0000E+00  0.1300E+03
     12.745  0.0000E+00  0.1300E+03
     12.760  0.0000E+00  0.1300E+03
     12.774  0.0000E+00  0.1300E+03
     12.789  0.0000E+00  0.1300E+03
     12.804  0.0000E+00  0.1300E+03
     12.818  0.0000E+00  0.1300E+03
     12.833  0.0000E+00  0.1300E+03
     12.847  0.0000E+00  0.1300E+03
     12.862  0.0000E+00  0.1300E+03
     12.876  0.0000E+00  0.1300E+03
     12.891  0.0000E+00  0.1300E+03
     12.905  0.0000E+00  0.1300E+03
     12.920  0.0000E+00  0.1300E+03
     12.934  0.0000E+00  0.1300E+03
     12.949  0.0000E+00  0.1300E+03
     12.964  0.0000E+00  0.1300E+03
     12.978  0.0000E+00  0.1300E+03
     12.993  0.0000E+00  0.1300E+03
     13.007  0.0000E+00  0.1300E+03
     13.022  0.0000E+00  0.1300E+03
     13.036  0.0000E+00  0.1300E+03
     13.051  0.0000E+00  0.1300E+03
     13.065  0.0000E+00  0.1300E+03
     13.080  0.8477E-15  0.1300E+03
     13.095  0.3586E-08  0.1300E+03
     13.109  0.2317E-03  0.1300E+03
     13.124  0.2641E+00  0.1300E+03
     13.138  0.7044E+01  0.1301E+03
     13.153  0.9816E+01  0.1302E+03
     13.167  0.2361E+02  0.1306E+03
     13.182  0.3678E+02  0.1311E+03
     13.196  0.4481E+02  0.1318E+03
     13.211  0.1502E+02  0.1320E+03
     13.226  0.1666E+02  0.1322E+03
     13.240  0.6087E+02  0.1331E+03
     13.255  0.1406E+02  0.1333E+03
     13.269  0.1285E+00  0.1333E+03
     13.284  0.4856E-04  0.1333E+03
     13.298  0.8514E-01  0.1333E+03
     13.313  0.7094E+01  0.1334E+03
     13.327  0.2067E+02  0.1337E+03
     13.342  0.1130E+02  0.1339E+03
     13.357  0.1982E+02  0.1342E+03
     13.371  0.2106E+01  0.1342E+03
     13.386  0.6745E-02  0.1342E+03
     13.400  0.4622E+00  0.1342E+03
     13.415  0.8274E+01  0.1343E+03
     13.429  0.6342E+01  0.1344E+03
     13.444  0.1915E+00  0.1344E+03
     13.458  0.1316E-03  0.1344E+03
     13.473  0.1580E-08  0.1344E+03
     13.488  0.1334E-09  0.1344E+03
     13.502  0.2326E-04  0.1344E+03
     13.517  0.6919E-01  0.1344E+03
     13.531  0.4369E+01  0.1345E+03
     13.546  0.9825E+01  0.1347E+03
     13.560  0.1004E+01  0.1347E+03
     13.575  0.2782E-02  0.1347E+03
     13.589  0.1435E-06  0.1347E+03
     13.604  0.3759E-07  0.1347E+03
     13.618  0.1433E-02  0.1347E+03
     13.633  0.9855E+00  0.1347E+03
     13.648  0.1683E+02  0.1349E+03
     13.662  0.1237E+02  0.1351E+03
     13.677  0.3558E+00  0.1351E+03
     13.691  0.2366E+00  0.1351E+03
     13.706  0.1071E+02  0.1353E+03
     13.720  0.1822E+02  0.1355E+03
     13.735  0.1372E+01  0.1356E+03
     13.749  0.2663E-02  0.1356E+03
     13.764  0.9453E-07  0.1356E+03
     13.779  0.5425E-13  0.1356E+03
     13.793  0.0000E+00  0.1356E+03
     13.808  0.0000E+00  0.1356E+03
     13.822  0.0000E+00  0.1356E+03
     13.837  0.0000E+00  0.1356E+03
     13.851  0.0000E+00  0.1356E+03
     13.866  0.0000E+00  0.1356E+03
     13.880  0.0000E+00  0.1356E+03
     13.895  0.0000E+00  0.1356E+03
     13.910  0.0000E+00  0.1356E+03
     13.924  0.0000E+00  0.1356E+03
     13.939  0.1865E-13  0.1356E+03
     13.953  0.4192E-07  0.1356E+03
     13.968  0.1543E-02  0.1356E+03
     13.982  0.1025E+01  0.1356E+03
     13.997  0.1700E+02  0.1358E+03
     14.011  0.1230E+02  0.1360E+03
     14.026  0.1761E+02  0.1363E+03
     14.041  0.8412E+02  0.1375E+03
     14.055  0.2047E+02  0.1378E+03
     14.070  0.6508E+00  0.1378E+03
     14.084  0.1406E+02  0.1380E+03
     14.099  0.6196E+02  0.1389E+03
     14.113  0.7707E+02  0.1400E+03
     14.128  0.1426E+02  0.1402E+03
     14.142  0.1345E+00  0.1402E+03
     14.157  0.3327E-04  0.1402E+03
     14.171  0.1546E-09  0.1402E+03
     14.186  0.0000E+00  0.1402E+03
     14.201  0.3052E-13  0.1402E+03
     14.215  0.6228E-07  0.1402E+03
     14.230  0.2014E-02  0.1402E+03
     14.244  0.1183E+01  0.1402E+03
     14.259  0.1761E+02  0.1405E+03
     14.273  0.1146E+02  0.1407E+03
     14.288  0.2855E+00  0.1407E+03
     14.302  0.1583E-03  0.1407E+03
     14.317  0.1521E-08  0.1407E+03
     14.332  0.0000E+00  0.1407E+03
     14.346  0.0000E+00  0.1407E+03
     14.361  0.0000E+00  0.1407E+03
     14.375  0.0000E+00  0.1407E+03
     14.390  0.0000E+00  0.1407E+03
     14.404  0.4723E-09  0.1407E+03
     14.419  0.8870E-04  0.1407E+03
     14.433  0.3000E+00  0.1407E+03
     14.448  0.2251E+02  0.1410E+03
     14.463  0.6091E+02  0.1419E+03
     14.477  0.7869E+01  0.1420E+03
     14.492  0.2994E-01  0.1420E+03
     14.506  0.2254E-05  0.1420E+03
     14.521  0.2791E-06  0.1420E+03
     14.535  0.6999E-02  0.1420E+03
     14.550  0.3573E+01  0.1421E+03
     14.564  0.5186E+02  0.1428E+03
     14.579  0.4218E+02  0.1434E+03
     14.594  0.2240E+02  0.1437E+03
     14.608  0.2102E+02  0.1441E+03
     14.623  0.7102E+02  0.1451E+03
     14.637  0.4369E+02  0.1457E+03
     14.652  0.3812E+01  0.1458E+03
     14.666  0.3308E-01  0.1458E+03
     14.681  0.1012E+01  0.1458E+03
     14.695  0.9838E+01  0.1459E+03
     14.710  0.4349E+01  0.1460E+03
     14.724  0.6838E-01  0.1460E+03
     14.739  0.2281E-04  0.1460E+03
     14.754  0.2598E-06  0.1460E+03
     14.768  0.7450E-02  0.1460E+03
     14.783  0.3941E+01  0.1461E+03
     14.797  0.5402E+02  0.1468E+03
     14.812  0.3288E+02  0.1473E+03
     14.826  0.7632E+00  0.1473E+03
     14.841  0.3960E-03  0.1473E+03
     14.855  0.3604E-08  0.1473E+03
     14.870  0.0000E+00  0.1473E+03
     14.885  0.0000E+00  0.1473E+03
     14.899  0.0000E+00  0.1473E+03
     14.914  0.2034E-13  0.1473E+03
     14.928  0.4620E-07  0.1473E+03
     14.943  0.1647E-02  0.1473E+03
     14.957  0.1062E+01  0.1473E+03
     14.972  0.1743E+02  0.1476E+03
     14.986  0.1915E+02  0.1479E+03
     15.001  0.7838E+01  0.1480E+03
     15.016  0.3350E+00  0.1480E+03
     15.030  0.3886E+01  0.1481E+03
     15.045  0.5375E+02  0.1488E+03
     15.059  0.3319E+02  0.1493E+03
     15.074  0.8070E+00  0.1493E+03
     15.088  0.3592E+01  0.1494E+03
     15.103  0.2110E+02  0.1497E+03
     15.117  0.5784E+01  0.1498E+03
     15.132  0.5141E-01  0.1498E+03
     15.147  0.9213E-05  0.1498E+03
     15.161  0.2767E-10  0.1498E+03
     15.176  0.0000E+00  0.1498E+03
     15.190  0.1695E-12  0.1498E+03
     15.205  0.2663E-06  0.1498E+03
     15.219  0.7088E-02  0.1498E+03
     15.234  0.3679E+01  0.1498E+03
     15.248  0.5239E+02  0.1506E+03
     15.263  0.3461E+02  0.1511E+03
     15.278  0.1869E+01  0.1511E+03
     15.292  0.1657E+02  0.1514E+03
     15.307  0.1266E+02  0.1516E+03
     15.321  0.3808E+00  0.1516E+03
     15.336  0.2606E-03  0.1516E+03
     15.350  0.3116E-08  0.1516E+03
     15.365  0.1031E-06  0.1516E+03
     15.379  0.2237E-02  0.1516E+03
     15.394  0.9052E+00  0.1516E+03
     15.408  0.1118E+02  0.1517E+03
     15.423  0.1508E+02  0.1520E+03
     15.438  0.3340E+01  0.1520E+03
     15.452  0.3390E-01  0.1520E+03
     15.467  0.7193E-05  0.1520E+03
     15.481  0.2571E-10  0.1520E+03
     15.496  0.2922E-09  0.1520E+03
     15.510  0.6629E-04  0.1520E+03
     15.525  0.2593E+00  0.1520E+03
     15.539  0.2146E+02  0.1523E+03
     15.554  0.6156E+02  0.1532E+03
     15.569  0.8311E+01  0.1533E+03
     15.583  0.3275E-01  0.1533E+03
     15.598  0.2536E-05  0.1533E+03
     15.612  0.3336E-11  0.1533E+03
     15.627  0.0000E+00  0.1533E+03
     15.641  0.0000E+00  0.1533E+03
     15.656  0.0000E+00  0.1533E+03
     15.670  0.2799E-10  0.1533E+03
     15.685  0.9831E-05  0.1533E+03
     15.700  0.6371E-01  0.1533E+03
     15.714  0.1004E+02  0.1535E+03
     15.729  0.6080E+02  0.1544E+03
     15.743  0.2060E+02  0.1547E+03
     15.758  0.9514E+01  0.1548E+03
     15.772  0.1931E+02  0.1551E+03
     15.787  0.2612E+01  0.1551E+03
     15.801  0.3255E+02  0.1556E+03
     15.816  0.5410E+02  0.1564E+03
     15.831  0.4183E+01  0.1564E+03
     15.845  0.8875E-02  0.1564E+03
     15.860  0.3623E-06  0.1564E+03
     15.874  0.9652E-09  0.1564E+03
     15.889  0.1152E-03  0.1564E+03
     15.903  0.2411E+00  0.1564E+03
     15.918  0.1310E+02  0.1566E+03
     15.932  0.5346E+02  0.1574E+03
     15.947  0.2427E+02  0.1578E+03
     15.961  0.5116E+01  0.1578E+03
     15.976  0.2777E+02  0.1582E+03
     15.991  0.1554E+02  0.1585E+03
     16.005  0.2046E+02  0.1588E+03
     16.020  0.7890E+01  0.1589E+03
     16.034  0.1195E+00  0.1589E+03
     16.049  0.4228E-04  0.1589E+03
     16.063  0.3559E-02  0.1589E+03
     16.078  0.2709E+01  0.1589E+03
     16.092  0.5813E+02  0.1598E+03
     16.107  0.5855E+02  0.1606E+03
     16.122  0.2764E+01  0.1607E+03
     16.136  0.3649E-02  0.1607E+03
     16.151  0.9825E-07  0.1607E+03
     16.165  0.5602E-04  0.1607E+03
     16.180  0.1550E+00  0.1607E+03
     16.194  0.9589E+01  0.1608E+03
     16.209  0.3288E+02  0.1613E+03
     16.223  0.1767E+02  0.1615E+03
     16.238  0.7853E+00  0.1616E+03
     16.253  0.9350E-03  0.1616E+03
     16.267  0.2000E-07  0.1616E+03
     16.282  0.6781E-14  0.1616E+03
     16.296  0.0000E+00  0.1616E+03
     16.311  0.0000E+00  0.1616E+03
     16.325  0.0000E+00  0.1616E+03
     16.340  0.0000E+00  0.1616E+03
     16.354  0.0000E+00  0.1616E+03
     16.369  0.0000E+00  0.1616E+03
     16.384  0.0000E+00  0.1616E+03
     16.398  0.5510E-13  0.1616E+03
     16.413  0.8058E-07  0.1616E+03
     16.427  0.1900E-02  0.1616E+03
     16.442  0.8338E+00  0.1616E+03
     16.456  0.1117E+02  0.1617E+03
     16.471  0.1538E+02  0.1620E+03
     16.485  0.3410E+01  0.1620E+03
     16.500  0.2244E+02  0.1623E+03
     16.514  0.6110E+02  0.1632E+03
     16.529  0.7795E+01  0.1633E+03
     16.544  0.2861E-01  0.1633E+03
     16.558  0.4523E-02  0.1633E+03
     16.573  0.1282E+01  0.1634E+03
     16.587  0.1020E+02  0.1635E+03
     16.602  0.3739E+01  0.1636E+03
     16.616  0.4718E-01  0.1636E+03
     16.631  0.4191E+00  0.1636E+03
     16.645  0.2579E+02  0.1639E+03
     16.660  0.5902E+02  0.1648E+03
     16.675  0.6373E+01  0.1649E+03
     16.689  0.2482E+00  0.1649E+03
     16.704  0.1058E+02  0.1650E+03
     16.718  0.1832E+02  0.1653E+03
     16.733  0.1407E+01  0.1653E+03
     16.747  0.2796E-02  0.1653E+03
     16.762  0.1017E-06  0.1653E+03
     16.776  0.6103E-13  0.1653E+03
     16.791  0.0000E+00  0.1653E+03
     16.806  0.0000E+00  0.1653E+03
     16.820  0.0000E+00  0.1653E+03
     16.835  0.3672E-10  0.1653E+03
     16.849  0.1129E-04  0.1653E+03
     16.864  0.5833E-01  0.1653E+03
     16.878  0.6111E+01  0.1654E+03
     16.893  0.2107E+02  0.1657E+03
     16.907  0.1611E+02  0.1660E+03
     16.922  0.6365E+02  0.1669E+03
     16.937  0.1505E+02  0.1671E+03
     16.951  0.1155E+00  0.1671E+03
     16.966  0.9836E+00  0.1671E+03
     16.980  0.1682E+02  0.1674E+03
     16.995  0.1452E+02  0.1676E+03
     17.009  0.4605E+02  0.1683E+03
     17.024  0.4216E+02  0.1689E+03
     17.038  0.1631E+01  0.1689E+03
     17.053  0.1532E-02  0.1689E+03
     17.068  0.2621E-07  0.1689E+03
     17.082  0.6781E-14  0.1689E+03
     17.097  0.0000E+00  0.1689E+03
     17.111  0.0000E+00  0.1689E+03
     17.126  0.2270E-09  0.1689E+03
     17.140  0.3388E-04  0.1689E+03
     17.155  0.8663E-01  0.1689E+03
     17.169  0.4767E+01  0.1690E+03
     17.184  0.9553E+01  0.1691E+03
     17.198  0.1057E+01  0.1691E+03
     17.213  0.1526E+02  0.1693E+03
     17.228  0.6008E+02  0.1702E+03
     17.242  0.1653E+02  0.1705E+03
     17.257  0.1497E+02  0.1707E+03
     17.271  0.1454E+02  0.1709E+03
     17.286  0.5873E+00  0.1709E+03
     17.300  0.5598E-03  0.1709E+03
     17.315  0.9443E-08  0.1709E+03
     17.329  0.3391E-14  0.1709E+03
     17.344  0.0000E+00  0.1709E+03
     17.359  0.0000E+00  0.1709E+03
     17.373  0.0000E+00  0.1709E+03
     17.388  0.0000E+00  0.1709E+03
     17.402  0.2036E-11  0.1709E+03
     17.417  0.1383E-05  0.1709E+03
     17.431  0.1548E-01  0.1709E+03
     17.446  0.3332E+01  0.1709E+03
     17.460  0.2098E+02  0.1712E+03
     17.475  0.6153E+01  0.1713E+03
     17.490  0.5927E-01  0.1713E+03
     17.504  0.1159E-04  0.1713E+03
     17.519  0.3805E-10  0.1713E+03
     17.533  0.0000E+00  0.1713E+03
     17.548  0.4924E-09  0.1713E+03
     17.562  0.7173E-04  0.1713E+03
     17.577  0.1792E+00  0.1713E+03
     17.591  0.9659E+01  0.1715E+03
     17.606  0.1902E+02  0.1718E+03
     17.621  0.1682E+01  0.1718E+03
     17.635  0.3935E-02  0.1718E+03
     17.650  0.1699E-06  0.1718E+03
     17.664  0.2442E-09  0.1718E+03
     17.679  0.4368E-04  0.1718E+03
     17.693  0.1332E+00  0.1718E+03
     17.708  0.8608E+01  0.1719E+03
     17.722  0.1973E+02  0.1722E+03
     17.737  0.2062E+01  0.1722E+03
     17.751  0.1869E+01  0.1722E+03
     17.766  0.4382E+02  0.1729E+03
     17.781  0.4404E+02  0.1735E+03
     17.795  0.1890E+01  0.1736E+03
     17.810  0.2011E-02  0.1736E+03
     17.824  0.1484E-06  0.1736E+03
     17.839  0.2319E-02  0.1736E+03
     17.853  0.9153E+00  0.1736E+03
     17.868  0.9663E+01  0.1737E+03
     17.882  0.4610E+01  0.1738E+03
     17.897  0.7939E-01  0.1738E+03
     17.912  0.2926E-04  0.1738E+03
     17.926  0.1845E-09  0.1738E+03
     17.941  0.0000E+00  0.1738E+03
     17.955  0.0000E+00  0.1738E+03
     17.970  0.0000E+00  0.1738E+03
     17.984  0.9155E-13  0.1738E+03
     17.999  0.1458E-06  0.1738E+03
     18.013  0.4009E-02  0.1738E+03
     18.028  0.2282E+01  0.1738E+03
     18.043  0.4178E+02  0.1744E+03
     18.057  0.4461E+02  0.1751E+03
     18.072  0.3287E+01  0.1751E+03
     18.086  0.1223E+02  0.1753E+03
     18.101  0.1696E+02  0.1755E+03
     18.115  0.1015E+01  0.1756E+03
     18.130  0.1515E-02  0.1756E+03
     18.144  0.2759E-04  0.1756E+03
     18.159  0.1156E+00  0.1756E+03
     18.174  0.1194E+02  0.1757E+03
     18.188  0.5753E+02  0.1766E+03
     18.203  0.3003E+02  0.1770E+03
     18.217  0.5433E+02  0.1778E+03
     18.232  0.2850E+02  0.1782E+03
     18.246  0.7885E+00  0.1782E+03
     18.261  0.1737E-02  0.1782E+03
     18.275  0.8929E+00  0.1782E+03
     18.290  0.1640E+02  0.1785E+03
     18.304  0.1285E+02  0.1787E+03
     18.319  0.3989E+00  0.1787E+03
     18.334  0.5586E+00  0.1787E+03
     18.348  0.1936E+02  0.1790E+03
     18.363  0.5601E+02  0.1798E+03
     18.377  0.1551E+02  0.1800E+03
     18.392  0.1852E+00  0.1800E+03
     18.406  0.1068E+00  0.1800E+03
     18.421  0.1205E+02  0.1802E+03
     18.435  0.6031E+02  0.1811E+03
     18.450  0.1889E+02  0.1813E+03
     18.465  0.2562E+00  0.1813E+03
     18.479  0.8620E-04  0.1813E+03
     18.494  0.1905E-01  0.1813E+03
     18.508  0.5842E+01  0.1814E+03
     18.523  0.5960E+02  0.1823E+03
     18.537  0.5100E+02  0.1830E+03
     18.552  0.2716E+02  0.1834E+03
     18.566  0.8930E+01  0.1836E+03
     18.581  0.1419E+00  0.1836E+03
     18.596  0.3650E-03  0.1836E+03
     18.610  0.4255E+00  0.1836E+03
     18.625  0.1313E+02  0.1838E+03
     18.639  0.1614E+02  0.1840E+03
     18.654  0.9304E+00  0.1840E+03
     18.668  0.4809E+01  0.1841E+03
     18.683  0.9524E+01  0.1842E+03
     18.697  0.1266E+01  0.1842E+03
     18.712  0.1306E+02  0.1844E+03
     18.727  0.1621E+02  0.1847E+03
     18.741  0.8551E+00  0.1847E+03
     18.756  0.1104E-02  0.1847E+03
     18.770  0.2556E-07  0.1847E+03
     18.785  0.1017E-13  0.1847E+03
     18.799  0.0000E+00  0.1847E+03
     18.814  0.5171E-12  0.1847E+03
     18.828  0.5052E-06  0.1847E+03
     18.843  0.8162E-02  0.1847E+03
     18.858  0.2720E+01  0.1847E+03
     18.872  0.3817E+02  0.1853E+03
     18.887  0.4673E+02  0.1859E+03
     18.901  0.3984E+01  0.1860E+03
     18.916  0.1062E-01  0.1860E+03
     18.930  0.5479E-06  0.1860E+03
     18.945  0.4144E-06  0.1860E+03
     18.959  0.5562E-02  0.1860E+03
     18.974  0.1420E+01  0.1860E+03
     18.988  0.1033E+02  0.1862E+03
     19.003  0.3479E+01  0.1862E+03
     19.018  0.3954E-01  0.1862E+03
     19.032  0.2915E-02  0.1862E+03
     19.047  0.1643E+01  0.1862E+03
     19.061  0.3138E+02  0.1867E+03
     19.076  0.6391E+02  0.1876E+03
     19.090  0.2462E+02  0.1880E+03
     19.105  0.6061E+00  0.1880E+03
     19.119  0.3729E-03  0.1880E+03
     19.134  0.4195E-08  0.1880E+03
     19.149  0.0000E+00  0.1880E+03
     19.163  0.0000E+00  0.1880E+03
     19.178  0.0000E+00  0.1880E+03
     19.192  0.0000E+00  0.1880E+03
     19.207  0.0000E+00  0.1880E+03
     19.221  0.0000E+00  0.1880E+03
     19.236  0.7012E-10  0.1880E+03
     19.250  0.1796E-04  0.1880E+03
     19.265  0.7766E-01  0.1880E+03
     19.280  0.6904E+01  0.1881E+03
     19.294  0.2068E+02  0.1884E+03
     19.309  0.2869E+01  0.1884E+03
     19.323  0.1136E-01  0.1884E+03
     19.338  0.8565E-06  0.1884E+03
     19.352  0.1058E-11  0.1884E+03
     19.367  0.3031E-10  0.1884E+03
     19.381  0.9838E-05  0.1884E+03
     19.396  0.5355E-01  0.1884E+03
     19.411  0.5888E+01  0.1885E+03
     19.425  0.2108E+02  0.1888E+03
     19.440  0.8855E+01  0.1890E+03
     19.454  0.5764E+02  0.1898E+03
     19.469  0.2821E+02  0.1902E+03
     19.483  0.6779E+01  0.1903E+03
     19.498  0.2102E+02  0.1906E+03
     19.512  0.1033E+02  0.1908E+03
     19.527  0.2061E+02  0.1911E+03
     19.541  0.3071E+01  0.1911E+03
     19.556  0.2268E+02  0.1914E+03
     19.571  0.6092E+02  0.1923E+03
     19.585  0.7710E+01  0.1924E+03
     19.600  0.2819E-01  0.1924E+03
     19.614  0.2415E-03  0.1924E+03
     19.629  0.3628E+00  0.1924E+03
     19.643  0.1245E+02  0.1926E+03
     19.658  0.1681E+02  0.1929E+03
     19.672  0.1163E+02  0.1930E+03
     19.687  0.6312E+02  0.1940E+03
     19.702  0.2022E+02  0.1943E+03
     19.716  0.1655E+02  0.1945E+03
     19.731  0.1096E+02  0.1947E+03
     19.745  0.6004E+00  0.1947E+03
     19.760  0.3137E+00  0.1947E+03
     19.774  0.7411E+01  0.1948E+03
     19.789  0.7254E+01  0.1949E+03
     19.803  0.2914E+00  0.1949E+03
     19.818  0.2760E-03  0.1949E+03
     19.833  0.4627E-08  0.1949E+03
     19.847  0.0000E+00  0.1949E+03
     19.862  0.0000E+00  0.1949E+03
     19.876  0.0000E+00  0.1949E+03
     19.891  0.0000E+00  0.1949E+03
     19.905  0.0000E+00  0.1949E+03
     19.920  0.0000E+00  0.1949E+03
     19.934  0.2105E-09  0.1949E+03
     19.949  0.4047E-04  0.1949E+03
     19.964  0.1440E+00  0.1949E+03
     19.978  0.1367E+02  0.1951E+03
     19.993  0.6078E+02  0.1960E+03
     20.007  0.1684E+02  0.1962E+03
     20.022  0.1876E+00  0.1962E+03
     20.036  0.4706E-04  0.1962E+03
     20.051  0.2056E-09  0.1962E+03
     20.065  0.0000E+00  0.1962E+03
     20.080  0.0000E+00  0.1962E+03
     20.094  0.0000E+00  0.1962E+03
     20.109  0.0000E+00  0.1962E+03
     20.124  0.0000E+00  0.1962E+03
     20.138  0.0000E+00  0.1962E+03
     20.153  0.0000E+00  0.1962E+03
     20.167  0.1303E-08  0.1962E+03
     20.182  0.1614E-03  0.1962E+03
     20.196  0.3878E+00  0.1962E+03
     20.211  0.2411E+02  0.1966E+03
     20.225  0.7249E+02  0.1976E+03
     20.240  0.2424E+02  0.1980E+03
     20.255  0.9399E+00  0.1980E+03
     20.269  0.1235E-02  0.1980E+03
     20.284  0.3006E-07  0.1980E+03
     20.298  0.1356E-13  0.1980E+03
     20.313  0.0000E+00  0.1980E+03
     20.327  0.0000E+00  0.1980E+03
     20.342  0.8722E-09  0.1980E+03
     20.356  0.1332E-03  0.1980E+03
     20.371  0.3593E+00  0.1980E+03
     20.386  0.2270E+02  0.1983E+03
     20.400  0.6583E+02  0.1993E+03
     20.415  0.3022E+02  0.1997E+03
     20.429  0.9810E+01  0.1999E+03
     20.444  0.8079E+01  0.2000E+03
     20.458  0.4764E+00  0.2000E+03
     20.473  0.9062E+01  0.2001E+03
     20.487  0.5769E+02  0.2010E+03
     20.502  0.2425E+02  0.2013E+03
     20.517  0.5618E+00  0.2013E+03
     20.531  0.3886E-03  0.2013E+03
     20.546  0.9207E-03  0.2013E+03
     20.560  0.7741E+00  0.2013E+03
     20.575  0.1577E+02  0.2016E+03
     20.589  0.1353E+02  0.2018E+03
     20.604  0.4665E+00  0.2018E+03
     20.618  0.3719E-03  0.2018E+03
     20.633  0.4374E-04  0.2018E+03
     20.648  0.1781E+00  0.2018E+03
     20.662  0.1715E+02  0.2020E+03
     20.677  0.6235E+02  0.2029E+03
     20.691  0.1186E+02  0.2031E+03
     20.706  0.7801E-01  0.2031E+03
     20.720  0.1130E-04  0.2031E+03
     20.735  0.2930E-10  0.2031E+03
     20.749  0.4139E-09  0.2031E+03
     20.764  0.8688E-04  0.2031E+03
     20.778  0.3107E+00  0.2031E+03
     20.793  0.2330E+02  0.2035E+03
     20.808  0.6070E+02  0.2043E+03
     20.822  0.7286E+01  0.2044E+03
     20.837  0.2444E-01  0.2044E+03
     20.851  0.1747E-01  0.2044E+03
     20.866  0.3541E+01  0.2045E+03
     20.880  0.2395E+02  0.2048E+03
     20.895  0.2655E+02  0.2052E+03
     20.909  0.6942E+01  0.2053E+03
     20.924  0.7725E-01  0.2053E+03
     20.939  0.9354E-03  0.2053E+03
     20.953  0.1100E+01  0.2053E+03
     20.968  0.3415E+02  0.2058E+03
     20.982  0.5161E+02  0.2066E+03
     20.997  0.4736E+01  0.2067E+03
     21.011  0.1705E-01  0.2067E+03
     21.026  0.1417E-05  0.2067E+03
     21.040  0.1412E-07  0.2067E+03
     21.055  0.8893E-03  0.2067E+03
     21.070  0.1100E+01  0.2067E+03
     21.084  0.3582E+02  0.2072E+03
     21.099  0.5117E+02  0.2079E+03
     21.113  0.3528E+01  0.2080E+03
     21.128  0.6969E-02  0.2080E+03
     21.142  0.6134E-02  0.2080E+03
     21.157  0.3315E+01  0.2080E+03
     21.171  0.5019E+02  0.2088E+03
     21.186  0.3687E+02  0.2093E+03
     21.201  0.1238E+01  0.2093E+03
     21.215  0.1974E+00  0.2093E+03
     21.230  0.1920E+02  0.2096E+03
     21.244  0.6263E+02  0.2105E+03
     21.259  0.9551E+01  0.2107E+03
     21.273  0.4260E-01  0.2107E+03
     21.288  0.3674E-05  0.2107E+03
     21.302  0.5272E-11  0.2107E+03
     21.317  0.0000E+00  0.2107E+03
     21.331  0.0000E+00  0.2107E+03
     21.346  0.2755E-10  0.2107E+03
     21.361  0.1107E-04  0.2107E+03
     21.375  0.7846E-01  0.2107E+03
     21.390  0.1200E+02  0.2108E+03
     21.404  0.6248E+02  0.2118E+03
     21.419  0.1758E+02  0.2120E+03
     21.433  0.9281E+01  0.2121E+03
     21.448  0.5355E+01  0.2122E+03
     21.462  0.1182E+00  0.2122E+03
     21.477  0.5732E-04  0.2122E+03
     21.492  0.1412E-08  0.2122E+03
     21.506  0.1181E-03  0.2122E+03
     21.521  0.2766E+00  0.2122E+03
     21.535  0.1605E+02  0.2125E+03
     21.550  0.3943E+02  0.2130E+03
     21.564  0.5294E+01  0.2131E+03
     21.579  0.2472E-01  0.2131E+03
     21.593  0.2557E-05  0.2131E+03
     21.608  0.4696E-11  0.2131E+03
     21.623  0.0000E+00  0.2131E+03
     21.637  0.0000E+00  0.2131E+03
     21.652  0.0000E+00  0.2131E+03
     21.666  0.0000E+00  0.2131E+03
     21.681  0.2371E-10  0.2131E+03
     21.695  0.1074E-04  0.2131E+03
     21.710  0.8315E-01  0.2131E+03
     21.724  0.1300E+02  0.2133E+03
     21.739  0.6406E+02  0.2142E+03
     21.754  0.2675E+02  0.2146E+03
     21.768  0.1692E+02  0.2149E+03
     21.783  0.1343E+01  0.2149E+03
     21.797  0.3535E-02  0.2149E+03
     21.812  0.1922E-06  0.2149E+03
     21.826  0.1763E-12  0.2149E+03
     21.841  0.0000E+00  0.2149E+03
     21.855  0.0000E+00  0.2149E+03
     21.870  0.1170E-12  0.2149E+03
     21.885  0.1681E-06  0.2149E+03
     21.899  0.3907E-02  0.2149E+03
     21.914  0.1676E+01  0.2149E+03
     21.928  0.1900E+02  0.2152E+03
     21.943  0.9678E+01  0.2153E+03
     21.957  0.1802E+00  0.2153E+03
     21.972  0.7237E-04  0.2153E+03
     21.986  0.4986E-09  0.2153E+03
     22.001  0.0000E+00  0.2153E+03
     22.015  0.5086E-14  0.2153E+03
     22.030  0.2264E-07  0.2153E+03
     22.045  0.1292E-02  0.2153E+03
     22.059  0.1368E+01  0.2154E+03
     22.074  0.3781E+02  0.2159E+03
     22.088  0.4911E+02  0.2166E+03
     22.103  0.1063E+02  0.2168E+03
     22.117  0.2054E+02  0.2171E+03
     22.132  0.2697E+01  0.2171E+03
     22.146  0.6909E+00  0.2171E+03
     22.161  0.9354E+01  0.2173E+03
     22.176  0.1500E+02  0.2175E+03
     22.190  0.1859E+02  0.2177E+03
     22.205  0.1014E+02  0.2179E+03
     22.219  0.5880E+02  0.2187E+03
     22.234  0.2884E+02  0.2192E+03
     22.248  0.2169E+02  0.2195E+03
     22.263  0.4840E+01  0.2196E+03
     22.277  0.3448E-01  0.2196E+03
     22.292  0.6556E-01  0.2196E+03
     22.307  0.4277E+01  0.2196E+03
     22.321  0.9884E+01  0.2198E+03
     22.336  0.1041E+01  0.2198E+03
     22.350  0.2983E-02  0.2198E+03
     22.365  0.2913E-02  0.2198E+03
     22.379  0.1028E+01  0.2198E+03
     22.394  0.9972E+01  0.2199E+03
     22.408  0.1212E+02  0.2201E+03
     22.423  0.5846E+02  0.2210E+03
     22.438  0.3936E+02  0.2215E+03
     22.452  0.1218E+01  0.2216E+03
     22.467  0.8925E-03  0.2216E+03
     22.481  0.1763E-01  0.2216E+03
     22.496  0.3001E+01  0.2216E+03
     22.510  0.2975E+02  0.2220E+03
     22.525  0.4325E+02  0.2227E+03
     22.539  0.1485E+02  0.2229E+03
     22.554  0.1291E+02  0.2231E+03
     22.568  0.7923E+02  0.2242E+03
     22.583  0.3023E+02  0.2247E+03
     22.598  0.5366E+00  0.2247E+03
     22.612  0.2681E-03  0.2247E+03
     22.627  0.2697E-08  0.2247E+03
     22.641  0.0000E+00  0.2247E+03
     22.656  0.0000E+00  0.2247E+03
     22.670  0.0000E+00  0.2247E+03
     22.685  0.0000E+00  0.2247E+03
     22.699  0.0000E+00  0.2247E+03
     22.714  0.0000E+00  0.2247E+03
     22.729  0.9620E-09  0.2247E+03
     22.743  0.1149E-03  0.2247E+03
     22.758  0.2369E+00  0.2247E+03
     22.772  0.1107E+02  0.2248E+03
     22.787  0.3396E+02  0.2253E+03
     22.801  0.2882E+02  0.2257E+03
     22.816  0.2301E+01  0.2258E+03
     22.830  0.6687E+01  0.2259E+03
     22.845  0.4908E+02  0.2266E+03
     22.860  0.3411E+02  0.2271E+03
     22.874  0.1695E+01  0.2271E+03
     22.889  0.2760E-02  0.2271E+03
     22.903  0.2404E-05  0.2271E+03
     22.918  0.2153E-01  0.2271E+03
     22.932  0.3896E+01  0.2272E+03
     22.947  0.2144E+02  0.2275E+03
     22.961  0.1634E+02  0.2277E+03
     22.976  0.1820E+02  0.2280E+03
     22.991  0.1519E+02  0.2282E+03
     23.005  0.6125E+02  0.2291E+03
     23.020  0.1618E+02  0.2293E+03
     23.034  0.2446E+01  0.2294E+03
     23.049  0.4817E+02  0.2301E+03
     23.063  0.6482E+02  0.2310E+03
     23.078  0.1630E+02  0.2312E+03
     23.092  0.5741E+01  0.2313E+03
     23.107  0.1405E+00  0.2313E+03
     23.121  0.7700E-04  0.2313E+03
     23.136  0.7315E-09  0.2313E+03
     23.151  0.1729E-12  0.2313E+03
     23.165  0.2236E-06  0.2313E+03
     23.180  0.4719E-02  0.2313E+03
     23.194  0.1847E+01  0.2314E+03
     23.209  0.1937E+02  0.2316E+03
     23.223  0.1150E+02  0.2318E+03
     23.238  0.2027E+02  0.2321E+03
     23.252  0.8011E+01  0.2322E+03
     23.267  0.6930E+01  0.2323E+03
     23.282  0.5626E+02  0.2331E+03
     23.296  0.2786E+02  0.2335E+03
     23.311  0.6606E+00  0.2336E+03
     23.325  0.3548E+01  0.2336E+03
     23.340  0.2108E+02  0.2339E+03
     23.354  0.5843E+01  0.2340E+03
     23.369  0.6058E-01  0.2340E+03
     23.383  0.3545E+01  0.2341E+03
     23.398  0.4818E+02  0.2348E+03
     23.413  0.3862E+02  0.2353E+03
     23.427  0.2283E+02  0.2356E+03
     23.442  0.4998E+02  0.2364E+03
     23.456  0.1933E+02  0.2367E+03
     23.471  0.7444E+00  0.2367E+03
     23.485  0.8291E-03  0.2367E+03
     23.500  0.1674E-07  0.2367E+03
     23.514  0.6781E-14  0.2367E+03
     23.529  0.0000E+00  0.2367E+03
     23.544  0.0000E+00  0.2367E+03
     23.558  0.0000E+00  0.2367E+03
     23.573  0.0000E+00  0.2367E+03
     23.587  0.6781E-14  0.2367E+03
     23.602  0.2043E-07  0.2367E+03
     23.616  0.9496E-03  0.2367E+03
     23.631  0.8050E+00  0.2367E+03
     23.645  0.2092E+02  0.2370E+03
     23.660  0.6434E+02  0.2379E+03
     23.675  0.3460E+02  0.2384E+03
     23.689  0.1499E+01  0.2384E+03
     23.704  0.2402E-02  0.2384E+03
     23.718  0.3281E+00  0.2384E+03
     23.733  0.2182E+02  0.2388E+03
     23.747  0.6091E+02  0.2397E+03
     23.762  0.2676E+02  0.2400E+03
     23.776  0.1202E+02  0.2402E+03
     23.791  0.3223E+00  0.2402E+03
     23.805  0.1436E-02  0.2402E+03
     23.820  0.6607E+00  0.2402E+03
     23.835  0.9034E+01  0.2404E+03
     23.849  0.5450E+01  0.2404E+03
     23.864  0.1241E+00  0.2404E+03
     23.878  0.6223E-04  0.2404E+03
     23.893  0.5394E-09  0.2404E+03
     23.907  0.0000E+00  0.2404E+03
     23.922  0.0000E+00  0.2404E+03
     23.936  0.3333E-08  0.2404E+03
     23.951  0.2730E-03  0.2404E+03
     23.966  0.3911E+00  0.2405E+03
     23.980  0.1277E+02  0.2406E+03
     23.995  0.1661E+02  0.2409E+03
     24.009  0.1049E+02  0.2410E+03
     24.024  0.3499E+02  0.2415E+03
     24.038  0.2742E+02  0.2419E+03
     24.053  0.1826E+02  0.2422E+03
     24.067  0.1216E+01  0.2422E+03
     24.082  0.2224E+00  0.2422E+03
     24.097  0.1732E+02  0.2425E+03
     24.111  0.5385E+02  0.2433E+03
     24.126  0.2788E+02  0.2437E+03
     24.140  0.7538E+01  0.2438E+03
     24.155  0.1243E+01  0.2438E+03
     24.169  0.1004E+02  0.2439E+03
     24.184  0.4022E+01  0.2440E+03
     24.198  0.5624E-01  0.2440E+03
     24.213  0.1649E-04  0.2440E+03
     24.228  0.8217E-10  0.2440E+03
     24.242  0.1547E-09  0.2440E+03
     24.257  0.3159E-04  0.2440E+03
     24.271  0.1096E+00  0.2440E+03
     24.286  0.7959E+01  0.2441E+03
     24.300  0.2013E+02  0.2444E+03
     24.315  0.2335E+01  0.2444E+03
     24.329  0.4084E-01  0.2444E+03
     24.344  0.3237E+01  0.2445E+03
     24.358  0.1044E+02  0.2446E+03
     24.373  0.4013E+01  0.2447E+03
     24.388  0.2520E+02  0.2451E+03
     24.402  0.2904E+02  0.2455E+03
     24.417  0.4364E+01  0.2456E+03
     24.431  0.2071E+01  0.2456E+03
     24.446  0.2464E+02  0.2459E+03
     24.460  0.2999E+02  0.2464E+03
     24.475  0.4374E+01  0.2464E+03
     24.489  0.2579E-01  0.2464E+03
     24.504  0.1653E-01  0.2464E+03
     24.519  0.3438E+01  0.2465E+03
     24.533  0.2103E+02  0.2468E+03
     24.548  0.5998E+01  0.2469E+03
     24.562  0.5592E-01  0.2469E+03
     24.577  0.1140E+00  0.2469E+03
     24.591  0.8088E+01  0.2470E+03
     24.606  0.2009E+02  0.2473E+03
     24.620  0.5945E+01  0.2474E+03
     24.635  0.2161E+02  0.2477E+03
     24.650  0.2845E+02  0.2481E+03
     24.664  0.3898E+02  0.2487E+03
     24.679  0.1385E+02  0.2489E+03
     24.693  0.6964E+00  0.2489E+03
     24.708  0.1669E+02  0.2491E+03
     24.722  0.3186E+02  0.2496E+03
     24.737  0.2455E+02  0.2500E+03
     24.751  0.2239E+02  0.2503E+03
     24.766  0.1075E+02  0.2504E+03
     24.781  0.3806E+00  0.2504E+03
     24.795  0.8852E+01  0.2506E+03
     24.810  0.1957E+02  0.2509E+03
     24.824  0.1967E+01  0.2509E+03
     24.839  0.1047E+01  0.2509E+03
     24.853  0.1927E+02  0.2512E+03
     24.868  0.3212E+02  0.2517E+03
     24.882  0.8525E+01  0.2518E+03
     24.897  0.1484E+01  0.2518E+03
     24.911  0.1820E+02  0.2521E+03
     24.926  0.1073E+02  0.2522E+03
     24.941  0.2376E+00  0.2522E+03
     24.955  0.2145E-01  0.2522E+03
     24.970  0.3880E+01  0.2523E+03
     24.984  0.2119E+02  0.2526E+03
     24.999  0.5409E+01  0.2527E+03
     25.013  0.4415E-01  0.2527E+03
     25.028  0.1281E-04  0.2527E+03
     25.042  0.3419E-01  0.2527E+03
     25.057  0.5140E+01  0.2527E+03
     25.072  0.3038E+02  0.2532E+03
     25.086  0.1013E+02  0.2533E+03
     25.101  0.2383E+01  0.2534E+03
     25.115  0.2040E+02  0.2537E+03
     25.130  0.2698E+02  0.2541E+03
     25.144  0.3808E+02  0.2546E+03
     25.159  0.3895E+01  0.2547E+03
     25.173  0.1293E-01  0.2547E+03
     25.188  0.5345E+00  0.2547E+03
     25.203  0.1413E+02  0.2549E+03
     25.217  0.1520E+02  0.2551E+03
     25.232  0.6807E+00  0.2551E+03
     25.246  0.7295E-03  0.2551E+03
     25.261  0.1391E-07  0.2551E+03
     25.275  0.6781E-14  0.2551E+03
     25.290  0.2611E-12  0.2551E+03
     25.304  0.3036E-06  0.2551E+03
     25.319  0.5773E-02  0.2551E+03
     25.334  0.2047E+01  0.2551E+03
     25.348  0.1994E+02  0.2554E+03
     25.363  0.1925E+02  0.2557E+03
     25.377  0.1844E+02  0.2560E+03
     25.392  0.3357E+01  0.2560E+03
     25.406  0.1956E+02  0.2563E+03
     25.421  0.8873E+01  0.2564E+03
     25.435  0.1454E+00  0.2564E+03
     25.450  0.1013E+01  0.2565E+03
     25.465  0.1854E+02  0.2567E+03
     25.479  0.3595E+02  0.2573E+03
     25.494  0.1988E+02  0.2575E+03
     25.508  0.9668E+00  0.2576E+03
     25.523  0.2687E+00  0.2576E+03
     25.537  0.1119E+02  0.2577E+03
     25.552  0.1789E+02  0.2580E+03
     25.566  0.7965E+01  0.2581E+03
     25.581  0.3725E+02  0.2586E+03
     25.595  0.1662E+02  0.2589E+03
     25.610  0.4607E+00  0.2589E+03
     25.625  0.3933E+01  0.2589E+03
     25.639  0.2120E+02  0.2593E+03
     25.654  0.7139E+01  0.2594E+03
     25.668  0.3272E+02  0.2598E+03
     25.683  0.2676E+02  0.2602E+03
     25.697  0.1756E+02  0.2605E+03
     25.712  0.1247E+02  0.2607E+03
     25.726  0.3641E+00  0.2607E+03
     25.741  0.2827E-03  0.2607E+03
     25.756  0.1356E+00  0.2607E+03
     25.770  0.1072E+02  0.2608E+03
     25.785  0.3979E+02  0.2614E+03
     25.799  0.1032E+02  0.2616E+03
     25.814  0.1245E+00  0.2616E+03
     25.828  0.3625E-04  0.2616E+03
     25.843  0.1864E-08  0.2616E+03
     25.857  0.1879E-03  0.2616E+03
     25.872  0.3883E+00  0.2616E+03
     25.887  0.1918E+02  0.2618E+03
     25.901  0.3786E+02  0.2624E+03
     25.916  0.3638E+01  0.2624E+03
     25.930  0.6538E+00  0.2625E+03
     25.945  0.8980E+01  0.2626E+03
     25.959  0.5517E+01  0.2627E+03
     25.974  0.1283E+00  0.2627E+03
     25.988  0.2205E-02  0.2627E+03
     26.003  0.1221E+01  0.2627E+03
     26.018  0.1774E+02  0.2629E+03
     26.032  0.1130E+02  0.2631E+03
     26.047  0.3991E+00  0.2631E+03
     26.061  0.8389E+01  0.2632E+03
     26.076  0.1997E+02  0.2635E+03
     26.090  0.9776E+01  0.2637E+03
     26.105  0.2032E+02  0.2640E+03
     26.119  0.2490E+01  0.2640E+03
     26.134  0.8791E-02  0.2640E+03
     26.148  0.3835E+00  0.2640E+03
     26.163  0.1269E+02  0.2642E+03
     26.178  0.1654E+02  0.2644E+03
     26.192  0.9233E+00  0.2644E+03
     26.207  0.7611E-01  0.2644E+03
     26.221  0.4506E+01  0.2645E+03
     26.236  0.9742E+01  0.2647E+03
     26.250  0.3274E+01  0.2647E+03
     26.265  0.2011E+02  0.2650E+03
     26.279  0.7990E+01  0.2651E+03
     26.294  0.5324E+00  0.2651E+03
     26.309  0.1310E+02  0.2653E+03
     26.323  0.1617E+02  0.2655E+03
     26.338  0.1500E+01  0.2656E+03
     26.352  0.1501E+02  0.2658E+03
     26.367  0.1432E+02  0.2660E+03
     26.381  0.6123E+00  0.2660E+03
     26.396  0.5883E+01  0.2661E+03
     26.410  0.2129E+02  0.2664E+03
     26.425  0.1393E+02  0.2666E+03
     26.440  0.1847E+02  0.2669E+03
     26.454  0.1456E+01  0.2669E+03
     26.469  0.1187E+01  0.2669E+03
     26.483  0.1955E+02  0.2672E+03
     26.498  0.2678E+02  0.2676E+03
     26.512  0.4100E+02  0.2682E+03
     26.527  0.1798E+02  0.2684E+03
     26.541  0.3978E+00  0.2684E+03
     26.556  0.2322E-03  0.2684E+03
     26.571  0.2524E-08  0.2684E+03
     26.585  0.6047E-08  0.2684E+03
     26.600  0.4121E-03  0.2684E+03
     26.614  0.4944E+00  0.2685E+03
     26.629  0.1379E+02  0.2687E+03
     26.643  0.1556E+02  0.2689E+03
     26.658  0.5581E+01  0.2690E+03
     26.672  0.2126E+02  0.2693E+03
     26.687  0.4366E+01  0.2693E+03
     26.701  0.2750E-01  0.2693E+03
     26.716  0.3401E-05  0.2693E+03
     26.731  0.1320E-10  0.2693E+03
     26.745  0.3123E-05  0.2693E+03
     26.760  0.2605E-01  0.2693E+03
     26.774  0.4258E+01  0.2694E+03
     26.789  0.2125E+02  0.2697E+03
     26.803  0.4965E+01  0.2698E+03
     26.818  0.3657E-01  0.2698E+03
     26.832  0.2218E+00  0.2698E+03
     26.847  0.1046E+02  0.2699E+03
     26.862  0.1841E+02  0.2702E+03
     26.876  0.1440E+01  0.2702E+03
     26.891  0.4530E+00  0.2702E+03
     26.905  0.1338E+02  0.2704E+03
     26.920  0.1591E+02  0.2707E+03
     26.934  0.8000E+00  0.2707E+03
     26.949  0.3038E-02  0.2707E+03
     26.963  0.1198E+01  0.2707E+03
     26.978  0.1830E+02  0.2710E+03
     26.993  0.3051E+02  0.2714E+03
     27.007  0.2484E+02  0.2718E+03
     27.022  0.1499E+01  0.2718E+03
     27.036  0.6202E-01  0.2718E+03
     27.051  0.6161E+01  0.2719E+03
     27.065  0.2258E+02  0.2722E+03
     27.080  0.2216E+02  0.2725E+03
     27.094  0.9924E+01  0.2727E+03
     27.109  0.1917E+00  0.2727E+03
     27.124  0.7066E-03  0.2727E+03
     27.138  0.6253E+00  0.2727E+03
     27.153  0.1482E+02  0.2729E+03
     27.167  0.1451E+02  0.2731E+03
     27.182  0.5892E+00  0.2731E+03
     27.196  0.2134E+01  0.2731E+03
     27.211  0.2146E+02  0.2735E+03
     27.225  0.3149E+02  0.2739E+03
     27.240  0.3134E+02  0.2744E+03
     27.255  0.5160E+01  0.2744E+03
     27.269  0.3655E-01  0.2744E+03
     27.284  0.1553E-01  0.2744E+03
     27.298  0.3336E+01  0.2745E+03
     27.313  0.2098E+02  0.2748E+03
     27.327  0.6147E+01  0.2749E+03
     27.342  0.5980E-01  0.2749E+03
     27.356  0.6507E+00  0.2749E+03
     27.371  0.1500E+02  0.2751E+03
     27.385  0.1433E+02  0.2753E+03
     27.400  0.5599E+00  0.2753E+03
     27.415  0.7261E-01  0.2753E+03
     27.429  0.6691E+01  0.2754E+03
     27.444  0.2077E+02  0.2757E+03
     27.458  0.2992E+01  0.2758E+03
     27.473  0.1073E+00  0.2758E+03
     27.487  0.7505E+01  0.2759E+03
     27.502  0.2038E+02  0.2762E+03
     27.516  0.2701E+01  0.2762E+03
     27.531  0.6104E+01  0.2763E+03
     27.546  0.1964E+02  0.2766E+03
     27.560  0.1861E+02  0.2769E+03
     27.575  0.1315E+01  0.2769E+03
     27.589  0.2457E-02  0.2769E+03
     27.604  0.1657E-01  0.2769E+03
     27.618  0.3692E+01  0.2769E+03
     27.633  0.3215E+02  0.2774E+03
     27.647  0.2390E+02  0.2778E+03
     27.662  0.1320E+01  0.2778E+03
     27.677  0.2293E-02  0.2778E+03
     27.691  0.5409E-04  0.2778E+03
     27.706  0.1142E+00  0.2778E+03
     27.720  0.5287E+01  0.2779E+03
     27.735  0.9163E+01  0.2780E+03
     27.749  0.7042E+00  0.2780E+03
     27.764  0.1400E-02  0.2780E+03
     27.778  0.5094E-07  0.2780E+03
     27.793  0.9160E-11  0.2780E+03
     27.808  0.4131E-05  0.2780E+03
     27.822  0.3110E-01  0.2780E+03
     27.837  0.4620E+01  0.2781E+03
     27.851  0.2182E+02  0.2784E+03
     27.866  0.1322E+02  0.2786E+03
     27.880  0.5959E+01  0.2787E+03
     27.895  0.1573E+00  0.2787E+03
     27.909  0.2418E+00  0.2787E+03
     27.924  0.1080E+02  0.2788E+03
     27.938  0.1815E+02  0.2791E+03
     27.953  0.1348E+01  0.2791E+03
     27.968  0.2578E-02  0.2791E+03
     27.982  0.9005E-07  0.2791E+03
     27.997  0.5086E-13  0.2791E+03
     28.011  0.0000E+00  0.2791E+03
     28.026  0.0000E+00  0.2791E+03
     28.040  0.0000E+00  0.2791E+03
     28.055  0.0000E+00  0.2791E+03
     28.069  0.0000E+00  0.2791E+03
     28.084  0.0000E+00  0.2791E+03
     28.099  0.4023E-11  0.2791E+03
     28.113  0.2275E-05  0.2791E+03
     28.128  0.2130E-01  0.2791E+03
     28.142  0.3885E+01  0.2792E+03
     28.157  0.2291E+02  0.2795E+03
     28.171  0.2148E+02  0.2798E+03
     28.186  0.2426E+02  0.2802E+03
     28.200  0.3782E+01  0.2802E+03
     28.215  0.1989E-01  0.2802E+03
     28.230  0.4212E-01  0.2802E+03
     28.244  0.6497E+01  0.2803E+03
     28.259  0.3178E+02  0.2808E+03
     28.273  0.7438E+01  0.2809E+03
     28.288  0.5625E-01  0.2809E+03
     28.302  0.8698E-05  0.2809E+03
     28.317  0.2868E-10  0.2809E+03
     28.331  0.2441E-05  0.2809E+03
     28.346  0.1758E-01  0.2809E+03
     28.361  0.2854E+01  0.2809E+03
     28.375  0.2383E+02  0.2813E+03
     28.390  0.1826E+02  0.2815E+03
     28.404  0.8441E+00  0.2816E+03
     28.419  0.1059E-02  0.2816E+03
     28.433  0.5742E-01  0.2816E+03
     28.448  0.6141E+01  0.2816E+03
     28.462  0.2549E+02  0.2820E+03
     28.477  0.1314E+02  0.2822E+03
     28.491  0.9788E+00  0.2822E+03
     28.506  0.2561E-02  0.2822E+03
     28.521  0.1265E-06  0.2822E+03
     28.535  0.3650E-09  0.2822E+03
     28.550  0.6496E-04  0.2822E+03
     28.564  0.1981E+00  0.2822E+03
     28.579  0.1285E+02  0.2824E+03
     28.593  0.2963E+02  0.2828E+03
     28.608  0.3122E+01  0.2829E+03
     28.622  0.8987E-02  0.2829E+03
     28.637  0.4849E-06  0.2829E+03
     28.652  0.1344E-06  0.2829E+03
     28.666  0.3368E-02  0.2829E+03
     28.681  0.1551E+01  0.2829E+03
     28.695  0.1871E+02  0.2832E+03
     28.710  0.1008E+02  0.2833E+03
     28.724  0.2446E+01  0.2834E+03
     28.739  0.2001E+02  0.2837E+03
     28.753  0.8160E+01  0.2838E+03
     28.768  0.1166E+00  0.2838E+03
     28.783  0.1439E+00  0.2838E+03
     28.797  0.5746E+01  0.2839E+03
     28.812  0.8791E+01  0.2840E+03
     28.826  0.5878E+00  0.2840E+03
     28.841  0.9954E-03  0.2840E+03
     28.855  0.3061E-07  0.2840E+03
     28.870  0.1526E-13  0.2840E+03
     28.884  0.8477E-15  0.2840E+03
     28.899  0.2334E-08  0.2840E+03
     28.914  0.1723E-03  0.2840E+03
     28.928  0.2234E+00  0.2840E+03
     28.943  0.6672E+01  0.2841E+03
     28.957  0.7971E+01  0.2842E+03
     28.972  0.4027E+00  0.2842E+03
     28.986  0.5942E-01  0.2842E+03
     29.001  0.4099E+01  0.2843E+03
     29.015  0.1033E+02  0.2844E+03
     29.030  0.1330E+02  0.2846E+03
     29.045  0.1831E+02  0.2849E+03
     29.059  0.1909E+02  0.2852E+03
     29.074  0.1091E+02  0.2853E+03
     29.088  0.2486E+00  0.2853E+03
     29.103  0.1249E-03  0.2853E+03
     29.117  0.1084E-08  0.2853E+03
     29.132  0.0000E+00  0.2853E+03
     29.146  0.0000E+00  0.2853E+03
     29.161  0.0000E+00  0.2853E+03
     29.175  0.0000E+00  0.2853E+03
     29.190  0.0000E+00  0.2853E+03
     29.205  0.0000E+00  0.2853E+03
     29.219  0.0000E+00  0.2853E+03
     29.234  0.1695E-13  0.2853E+03
     29.248  0.3381E-07  0.2853E+03
     29.263  0.1064E-02  0.2853E+03
     29.277  0.6091E+00  0.2853E+03
     29.292  0.8881E+01  0.2855E+03
     29.306  0.8989E+01  0.2856E+03
     29.321  0.2170E+02  0.2859E+03
     29.336  0.2068E+02  0.2862E+03
     29.350  0.1486E+02  0.2864E+03
     29.365  0.6227E+00  0.2864E+03
     29.379  0.6216E-03  0.2864E+03
     29.394  0.1100E-07  0.2864E+03
     29.408  0.3391E-14  0.2864E+03
     29.423  0.1017E-12  0.2864E+03
     29.437  0.1502E-06  0.2864E+03
     29.452  0.3625E-02  0.2864E+03
     29.467  0.1612E+01  0.2865E+03
     29.481  0.1886E+02  0.2867E+03
     29.496  0.9879E+01  0.2869E+03
     29.510  0.1914E+00  0.2869E+03
     29.525  0.6615E+00  0.2869E+03
     29.539  0.9036E+01  0.2870E+03
     29.554  0.5447E+01  0.2871E+03
     29.568  0.1239E+00  0.2871E+03
     29.583  0.6208E-04  0.2871E+03
     29.598  0.5375E-09  0.2871E+03
     29.612  0.0000E+00  0.2871E+03
     29.627  0.0000E+00  0.2871E+03
     29.641  0.0000E+00  0.2871E+03
     29.656  0.0000E+00  0.2871E+03
     29.670  0.0000E+00  0.2871E+03
     29.685  0.0000E+00  0.2871E+03
     29.699  0.2789E-10  0.2871E+03
     29.714  0.7625E-05  0.2871E+03
     29.728  0.3511E-01  0.2871E+03
     29.743  0.3308E+01  0.2872E+03
     29.758  0.1040E+02  0.2873E+03
     29.772  0.1518E+01  0.2873E+03
     29.787  0.8190E-02  0.2873E+03
     29.801  0.1115E+01  0.2873E+03
     29.816  0.1736E+02  0.2876E+03
     29.830  0.1176E+02  0.2878E+03
     29.845  0.3068E+00  0.2878E+03
     29.859  0.1792E-03  0.2878E+03
     29.874  0.1818E-08  0.2878E+03
     29.889  0.0000E+00  0.2878E+03
     29.903  0.0000E+00  0.2878E+03
     29.918  0.0000E+00  0.2878E+03
     29.932  0.0000E+00  0.2878E+03
     29.947  0.0000E+00  0.2878E+03
     29.961  0.0000E+00  0.2878E+03
     29.976  0.2363E-09  0.2878E+03
     29.990  0.3484E-04  0.2878E+03
     30.005  0.8809E-01  0.2878E+03
     30.020  0.4798E+01  0.2878E+03
     30.034  0.9531E+01  0.2880E+03
     30.049  0.8513E+00  0.2880E+03
     30.063  0.2014E-02  0.2880E+03
     30.078  0.8805E-07  0.2880E+03
     30.092  0.6273E-13  0.2880E+03
     30.107  0.0000E+00  0.2880E+03
     30.121  0.0000E+00  0.2880E+03
     30.136  0.0000E+00  0.2880E+03
     30.151  0.0000E+00  0.2880E+03
     30.165  0.0000E+00  0.2880E+03
     30.180  0.0000E+00  0.2880E+03
     30.194  0.0000E+00  0.2880E+03
     30.209  0.0000E+00  0.2880E+03
     30.223  0.0000E+00  0.2880E+03
     30.238  0.0000E+00  0.2880E+03
     30.252  0.0000E+00  0.2880E+03
     30.267  0.0000E+00  0.2880E+03
     30.281  0.0000E+00  0.2880E+03
     30.296  0.0000E+00  0.2880E+03
     30.311  0.0000E+00  0.2880E+03
     30.325  0.0000E+00  0.2880E+03
     30.340  0.0000E+00  0.2880E+03
     30.354  0.0000E+00  0.2880E+03
     30.369  0.0000E+00  0.2880E+03
     30.383  0.0000E+00  0.2880E+03
     30.398  0.0000E+00  0.2880E+03
     30.412  0.0000E+00  0.2880E+03
     30.427  0.0000E+00  0.2880E+03
     30.442  0.0000E+00  0.2880E+03
     30.456  0.0000E+00  0.2880E+03
     30.471  0.0000E+00  0.2880E+03
     30.485  0.0000E+00  0.2880E+03
     30.500  0.0000E+00  0.2880E+03
     30.514  0.0000E+00  0.2880E+03
     30.529  0.0000E+00  0.2880E+03
     30.543  0.0000E+00  0.2880E+03
     30.558  0.0000E+00  0.2880E+03
     30.573  0.0000E+00  0.2880E+03
     30.587  0.0000E+00  0.2880E+03
     30.602  0.0000E+00  0.2880E+03
     30.616  0.0000E+00  0.2880E+03
     30.631  0.0000E+00  0.2880E+03
     30.645  0.0000E+00  0.2880E+03
     30.660  0.0000E+00  0.2880E+03
     30.674  0.0000E+00  0.2880E+03
     30.689  0.0000E+00  0.2880E+03
     30.704  0.0000E+00  0.2880E+03
     30.718  0.0000E+00  0.2880E+03
     30.733  0.0000E+00  0.2880E+03
     30.747  0.0000E+00  0.2880E+03
     30.762  0.0000E+00  0.2880E+03
     30.776  0.0000E+00  0.2880E+03
     30.791  0.0000E+00  0.2880E+03
     30.805  0.0000E+00  0.2880E+03
     30.820  0.0000E+00  0.2880E+03
     30.835  0.0000E+00  0.2880E+03
     30.849  0.0000E+00  0.2880E+03
     30.864  0.0000E+00  0.2880E+03
     30.878  0.0000E+00  0.2880E+03
     30.893  0.0000E+00  0.2880E+03
     30.907  0.0000E+00  0.2880E+03
     30.922  0.0000E+00  0.2880E+03
     30.936  0.0000E+00  0.2880E+03
     30.951  0.0000E+00  0.2880E+03
     30.965  0.0000E+00  0.2880E+03
     30.980  0.0000E+00  0.2880E+03
     30.995  0.0000E+00  0.2880E+03
     31.009  0.0000E+00  0.2880E+03
     31.024  0.0000E+00  0.2880E+03
     31.038  0.0000E+00  0.2880E+03
     31.053  0.0000E+00  0.2880E+03
     31.067  0.0000E+00  0.2880E+03
     31.082  0.0000E+00  0.2880E+03
     31.096  0.0000E+00  0.2880E+03
     31.111  0.0000E+00  0.2880E+03
     31.126  0.0000E+00  0.2880E+03
     31.140  0.0000E+00  0.2880E+03
     31.155  0.0000E+00  0.2880E+03
     31.169  0.0000E+00  0.2880E+03
     31.184  0.0000E+00  0.2880E+03
     31.198  0.0000E+00  0.2880E+03
     31.213  0.0000E+00  0.2880E+03
     31.227  0.0000E+00  0.2880E+03
     31.242  0.0000E+00  0.2880E+03
     31.257  0.0000E+00  0.2880E+03
     31.271  0.0000E+00  0.2880E+03
     31.286  0.0000E+00  0.2880E+03
     31.300  0.0000E+00  0.2880E+03
     31.315  0.0000E+00  0.2880E+03
     31.329  0.0000E+00  0.2880E+03
     31.344  0.0000E+00  0.2880E+03
     31.358  0.0000E+00  0.2880E+03
     31.373  0.0000E+00  0.2880E+03
     31.388  0.0000E+00  0.2880E+03
     31.402  0.0000E+00  0.2880E+03
     31.417  0.0000E+00  0.2880E+03
     31.431  0.0000E+00  0.2880E+03
     31.446  0.0000E+00  0.2880E+03
     31.460  0.0000E+00  0.2880E+03
     31.475  0.0000E+00  0.2880E+03
     31.489  0.0000E+00  0.2880E+03
     31.504  0.0000E+00  0.2880E+03
     31.518  0.0000E+00  0.2880E+03
     31.533  0.0000E+00  0.2880E+03
     31.548  0.0000E+00  0.2880E+03
     31.562  0.0000E+00  0.2880E+03
     31.577  0.0000E+00  0.2880E+03
     31.591  0.0000E+00  0.2880E+03
     31.606  0.0000E+00  0.2880E+03
     31.620  0.0000E+00  0.2880E+03
     31.635  0.0000E+00  0.2880E+03
     31.649  0.0000E+00  0.2880E+03
     31.664  0.0000E+00  0.2880E+03
     31.679  0.0000E+00  0.2880E+03
     31.693  0.0000E+00  0.2880E+03
     31.708  0.0000E+00  0.2880E+03
     31.722  0.0000E+00  0.2880E+03
     31.737  0.0000E+00  0.2880E+03
     31.751  0.0000E+00  0.2880E+03
     31.766  0.0000E+00  0.2880E+03
     31.780  0.0000E+00  0.2880E+03
     31.795  0.0000E+00  0.2880E+03
     31.810  0.0000E+00  0.2880E+03
     31.824  0.0000E+00  0.2880E+03
     31.839  0.0000E+00  0.2880E+03
     31.853  0.0000E+00  0.2880E+03
     31.868  0.0000E+00  0.2880E+03
     31.882  0.0000E+00  0.2880E+03
     31.897  0.0000E+00  0.2880E+03
     31.911  0.0000E+00  0.2880E+03
     31.926  0.0000E+00  0.2880E+03
     31.941  0.0000E+00  0.2880E+03
     31.955  0.0000E+00  0.2880E+03
     31.970  0.0000E+00  0.2880E+03
     31.984  0.0000E+00  0.2880E+03
     31.999  0.0000E+00  0.2880E+03
     32.013  0.0000E+00  0.2880E+03
     32.028  0.0000E+00  0.2880E+03
     32.042  0.0000E+00  0.2880E+03
     32.057  0.0000E+00  0.2880E+03
     32.071  0.0000E+00  0.2880E+03
     32.086  0.0000E+00  0.2880E+03
     32.101  0.0000E+00  0.2880E+03
     32.115  0.0000E+00  0.2880E+03
     32.130  0.0000E+00  0.2880E+03
     32.144  0.0000E+00  0.2880E+03
     32.159  0.0000E+00  0.2880E+03
     32.173  0.0000E+00  0.2880E+03
     32.188  0.0000E+00  0.2880E+03
     32.202  0.0000E+00  0.2880E+03
     32.217  0.0000E+00  0.2880E+03
     32.232  0.0000E+00  0.2880E+03
     32.246  0.0000E+00  0.2880E+03
     32.261  0.0000E+00  0.2880E+03
     32.275  0.0000E+00  0.2880E+03
     32.290  0.0000E+00  0.2880E+03
     32.304  0.0000E+00  0.2880E+03
     32.319  0.0000E+00  0.2880E+03
     32.333  0.0000E+00  0.2880E+03
     32.348  0.0000E+00  0.2880E+03
     32.363  0.0000E+00  0.2880E+03
     32.377  0.0000E+00  0.2880E+03
     32.392  0.0000E+00  0.2880E+03
     32.406  0.0000E+00  0.2880E+03
     32.421  0.0000E+00  0.2880E+03
     32.435  0.0000E+00  0.2880E+03
     32.450  0.0000E+00  0.2880E+03
     32.464  0.0000E+00  0.2880E+03
     32.479  0.0000E+00  0.2880E+03
     32.494  0.0000E+00  0.2880E+03
     32.508  0.0000E+00  0.2880E+03
     32.523  0.0000E+00  0.2880E+03
     32.537  0.0000E+00  0.2880E+03
     32.552  0.0000E+00  0.2880E+03
     32.566  0.0000E+00  0.2880E+03
     32.581  0.0000E+00  0.2880E+03
     32.595  0.0000E+00  0.2880E+03
     32.610  0.0000E+00  0.2880E+03
     32.625  0.0000E+00  0.2880E+03
     32.639  0.0000E+00  0.2880E+03
     32.654  0.0000E+00  0.2880E+03
     32.668  0.0000E+00  0.2880E+03
