  15  15   0   0
  0.2033749E+02  0.4846000E-09  0.4846000E-09  0.1500000E-08  0.5000000E-15
  1.000000000000000E-004
  CAR 
 Dielectric                              
     27.37487200    -22.50824852 4000     -0.46647987      1.00000000
    -22.508  0.0000E+00  0.0000E+00
    -22.496  0.0000E+00  0.0000E+00
    -22.483  0.0000E+00  0.0000E+00
    -22.471  0.0000E+00  0.0000E+00
    -22.458  0.0000E+00  0.0000E+00
    -22.446  0.0000E+00  0.0000E+00
    -22.433  0.0000E+00  0.0000E+00
    -22.421  0.0000E+00  0.0000E+00
    -22.408  0.0000E+00  0.0000E+00
    -22.396  0.0000E+00  0.0000E+00
    -22.384  0.0000E+00  0.0000E+00
    -22.371  0.0000E+00  0.0000E+00
    -22.359  0.0000E+00  0.0000E+00
    -22.346  0.0000E+00  0.0000E+00
    -22.334  0.0000E+00  0.0000E+00
    -22.321  0.0000E+00  0.0000E+00
    -22.309  0.0000E+00  0.0000E+00
    -22.296  0.0000E+00  0.0000E+00
    -22.284  0.0000E+00  0.0000E+00
    -22.271  0.0000E+00  0.0000E+00
    -22.259  0.0000E+00  0.0000E+00
    -22.246  0.0000E+00  0.0000E+00
    -22.234  0.0000E+00  0.0000E+00
    -22.221  0.0000E+00  0.0000E+00
    -22.209  0.0000E+00  0.0000E+00
    -22.196  0.0000E+00  0.0000E+00
    -22.184  0.0000E+00  0.0000E+00
    -22.171  0.0000E+00  0.0000E+00
    -22.159  0.0000E+00  0.0000E+00
    -22.147  0.0000E+00  0.0000E+00
    -22.134  0.0000E+00  0.0000E+00
    -22.122  0.0000E+00  0.0000E+00
    -22.109  0.0000E+00  0.0000E+00
    -22.097  0.0000E+00  0.0000E+00
    -22.084  0.0000E+00  0.0000E+00
    -22.072  0.0000E+00  0.0000E+00
    -22.059  0.0000E+00  0.0000E+00
    -22.047  0.0000E+00  0.0000E+00
    -22.034  0.0000E+00  0.0000E+00
    -22.022  0.0000E+00  0.0000E+00
    -22.009  0.0000E+00  0.0000E+00
    -21.997  0.0000E+00  0.0000E+00
    -21.984  0.0000E+00  0.0000E+00
    -21.972  0.0000E+00  0.0000E+00
    -21.959  0.0000E+00  0.0000E+00
    -21.947  0.0000E+00  0.0000E+00
    -21.934  0.0000E+00  0.0000E+00
    -21.922  0.0000E+00  0.0000E+00
    -21.910  0.0000E+00  0.0000E+00
    -21.897  0.0000E+00  0.0000E+00
    -21.885  0.0000E+00  0.0000E+00
    -21.872  0.0000E+00  0.0000E+00
    -21.860  0.0000E+00  0.0000E+00
    -21.847  0.0000E+00  0.0000E+00
    -21.835  0.0000E+00  0.0000E+00
    -21.822  0.0000E+00  0.0000E+00
    -21.810  0.0000E+00  0.0000E+00
    -21.797  0.0000E+00  0.0000E+00
    -21.785  0.0000E+00  0.0000E+00
    -21.772  0.0000E+00  0.0000E+00
    -21.760  0.0000E+00  0.0000E+00
    -21.747  0.0000E+00  0.0000E+00
    -21.735  0.0000E+00  0.0000E+00
    -21.722  0.0000E+00  0.0000E+00
    -21.710  0.0000E+00  0.0000E+00
    -21.697  0.0000E+00  0.0000E+00
    -21.685  0.0000E+00  0.0000E+00
    -21.672  0.0000E+00  0.0000E+00
    -21.660  0.0000E+00  0.0000E+00
    -21.648  0.0000E+00  0.0000E+00
    -21.635  0.0000E+00  0.0000E+00
    -21.623  0.0000E+00  0.0000E+00
    -21.610  0.0000E+00  0.0000E+00
    -21.598  0.0000E+00  0.0000E+00
    -21.585  0.0000E+00  0.0000E+00
    -21.573  0.0000E+00  0.0000E+00
    -21.560  0.0000E+00  0.0000E+00
    -21.548  0.0000E+00  0.0000E+00
    -21.535  0.0000E+00  0.0000E+00
    -21.523  0.0000E+00  0.0000E+00
    -21.510  0.0000E+00  0.0000E+00
    -21.498  0.0000E+00  0.0000E+00
    -21.485  0.0000E+00  0.0000E+00
    -21.473  0.0000E+00  0.0000E+00
    -21.460  0.0000E+00  0.0000E+00
    -21.448  0.0000E+00  0.0000E+00
    -21.435  0.0000E+00  0.0000E+00
    -21.423  0.0000E+00  0.0000E+00
    -21.411  0.0000E+00  0.0000E+00
    -21.398  0.0000E+00  0.0000E+00
    -21.386  0.0000E+00  0.0000E+00
    -21.373  0.0000E+00  0.0000E+00
    -21.361  0.0000E+00  0.0000E+00
    -21.348  0.0000E+00  0.0000E+00
    -21.336  0.0000E+00  0.0000E+00
    -21.323  0.0000E+00  0.0000E+00
    -21.311  0.0000E+00  0.0000E+00
    -21.298  0.0000E+00  0.0000E+00
    -21.286  0.0000E+00  0.0000E+00
    -21.273  0.0000E+00  0.0000E+00
    -21.261  0.0000E+00  0.0000E+00
    -21.248  0.0000E+00  0.0000E+00
    -21.236  0.0000E+00  0.0000E+00
    -21.223  0.0000E+00  0.0000E+00
    -21.211  0.0000E+00  0.0000E+00
    -21.198  0.0000E+00  0.0000E+00
    -21.186  0.0000E+00  0.0000E+00
    -21.174  0.0000E+00  0.0000E+00
    -21.161  0.0000E+00  0.0000E+00
    -21.149  0.0000E+00  0.0000E+00
    -21.136  0.0000E+00  0.0000E+00
    -21.124  0.0000E+00  0.0000E+00
    -21.111  0.0000E+00  0.0000E+00
    -21.099  0.0000E+00  0.0000E+00
    -21.086  0.0000E+00  0.0000E+00
    -21.074  0.0000E+00  0.0000E+00
    -21.061  0.0000E+00  0.0000E+00
    -21.049  0.0000E+00  0.0000E+00
    -21.036  0.0000E+00  0.0000E+00
    -21.024  0.0000E+00  0.0000E+00
    -21.011  0.0000E+00  0.0000E+00
    -20.999  0.0000E+00  0.0000E+00
    -20.986  0.0000E+00  0.0000E+00
    -20.974  0.0000E+00  0.0000E+00
    -20.961  0.0000E+00  0.0000E+00
    -20.949  0.0000E+00  0.0000E+00
    -20.937  0.0000E+00  0.0000E+00
    -20.924  0.0000E+00  0.0000E+00
    -20.912  0.0000E+00  0.0000E+00
    -20.899  0.0000E+00  0.0000E+00
    -20.887  0.0000E+00  0.0000E+00
    -20.874  0.0000E+00  0.0000E+00
    -20.862  0.0000E+00  0.0000E+00
    -20.849  0.0000E+00  0.0000E+00
    -20.837  0.0000E+00  0.0000E+00
    -20.824  0.0000E+00  0.0000E+00
    -20.812  0.0000E+00  0.0000E+00
    -20.799  0.0000E+00  0.0000E+00
    -20.787  0.0000E+00  0.0000E+00
    -20.774  0.0000E+00  0.0000E+00
    -20.762  0.0000E+00  0.0000E+00
    -20.749  0.0000E+00  0.0000E+00
    -20.737  0.0000E+00  0.0000E+00
    -20.724  0.0000E+00  0.0000E+00
    -20.712  0.0000E+00  0.0000E+00
    -20.700  0.0000E+00  0.0000E+00
    -20.687  0.0000E+00  0.0000E+00
    -20.675  0.0000E+00  0.0000E+00
    -20.662  0.0000E+00  0.0000E+00
    -20.650  0.0000E+00  0.0000E+00
    -20.637  0.0000E+00  0.0000E+00
    -20.625  0.0000E+00  0.0000E+00
    -20.612  0.0000E+00  0.0000E+00
    -20.600  0.0000E+00  0.0000E+00
    -20.587  0.0000E+00  0.0000E+00
    -20.575  0.0000E+00  0.0000E+00
    -20.562  0.0000E+00  0.0000E+00
    -20.550  0.0000E+00  0.0000E+00
    -20.537  0.0000E+00  0.0000E+00
    -20.525  0.0000E+00  0.0000E+00
    -20.512  0.0000E+00  0.0000E+00
    -20.500  0.0000E+00  0.0000E+00
    -20.487  0.0000E+00  0.0000E+00
    -20.475  0.0000E+00  0.0000E+00
    -20.463  0.0000E+00  0.0000E+00
    -20.450  0.0000E+00  0.0000E+00
    -20.438  0.0000E+00  0.0000E+00
    -20.425  0.0000E+00  0.0000E+00
    -20.413  0.0000E+00  0.0000E+00
    -20.400  0.0000E+00  0.0000E+00
    -20.388  0.0000E+00  0.0000E+00
    -20.375  0.0000E+00  0.0000E+00
    -20.363  0.0000E+00  0.0000E+00
    -20.350  0.0000E+00  0.0000E+00
    -20.338  0.0000E+00  0.0000E+00
    -20.325  0.0000E+00  0.0000E+00
    -20.313  0.0000E+00  0.0000E+00
    -20.300  0.0000E+00  0.0000E+00
    -20.288  0.3625E-11  0.4522E-13
    -20.275  0.1288E-06  0.1606E-08
    -20.263  0.2313E-03  0.2887E-05
    -20.250  0.2663E-01  0.3351E-03
    -20.238  0.3938E+00  0.5248E-02
    -20.226  0.1077E+01  0.1868E-01
    -20.213  0.1019E+01  0.3138E-01
    -20.201  0.1603E+01  0.5138E-01
    -20.188  0.7567E+00  0.6082E-01
    -20.176  0.1022E+01  0.7357E-01
    -20.163  0.1890E+01  0.9715E-01
    -20.151  0.1133E+01  0.1113E+00
    -20.138  0.5762E+00  0.1185E+00
    -20.126  0.7516E+00  0.1278E+00
    -20.113  0.2357E+01  0.1572E+00
    -20.101  0.1428E+01  0.1751E+00
    -20.088  0.5547E+00  0.1820E+00
    -20.076  0.9100E+00  0.1933E+00
    -20.063  0.5672E+00  0.2004E+00
    -20.051  0.1940E+01  0.2246E+00
    -20.038  0.1847E+01  0.2476E+00
    -20.026  0.1722E+01  0.2691E+00
    -20.013  0.2446E+00  0.2722E+00
    -20.001  0.4407E+00  0.2777E+00
    -19.989  0.1017E+01  0.2904E+00
    -19.976  0.1368E+01  0.3074E+00
    -19.964  0.2461E+01  0.3381E+00
    -19.951  0.9545E+00  0.3500E+00
    -19.939  0.1468E+01  0.3684E+00
    -19.926  0.1397E+01  0.3858E+00
    -19.914  0.1138E+00  0.3872E+00
    -19.901  0.9589E-01  0.3884E+00
    -19.889  0.1167E+01  0.4030E+00
    -19.876  0.2511E+01  0.4343E+00
    -19.864  0.1882E+01  0.4577E+00
    -19.851  0.1777E+01  0.4799E+00
    -19.839  0.2883E+00  0.4835E+00
    -19.826  0.8187E+00  0.4937E+00
    -19.814  0.1858E+01  0.5169E+00
    -19.801  0.3712E+00  0.5215E+00
    -19.789  0.2881E-01  0.5219E+00
    -19.776  0.6705E+00  0.5303E+00
    -19.764  0.2975E+01  0.5674E+00
    -19.752  0.2324E+01  0.5964E+00
    -19.739  0.9914E+00  0.6087E+00
    -19.727  0.1865E+01  0.6320E+00
    -19.714  0.3801E+00  0.6367E+00
    -19.702  0.4978E-01  0.6374E+00
    -19.689  0.9921E+00  0.6497E+00
    -19.677  0.1766E+01  0.6718E+00
    -19.664  0.2999E+00  0.6755E+00
    -19.652  0.8062E+00  0.6856E+00
    -19.639  0.2035E+01  0.7109E+00
    -19.627  0.2129E+01  0.7375E+00
    -19.614  0.2177E+01  0.7647E+00
    -19.602  0.6223E+00  0.7724E+00
    -19.589  0.1412E+01  0.7900E+00
    -19.577  0.1442E+01  0.8080E+00
    -19.564  0.1252E+00  0.8096E+00
    -19.552  0.5512E-02  0.8097E+00
    -19.539  0.3549E+00  0.8141E+00
    -19.527  0.1871E+01  0.8374E+00
    -19.515  0.1469E+01  0.8557E+00
    -19.502  0.2321E+01  0.8847E+00
    -19.490  0.1583E+01  0.9044E+00
    -19.477  0.9527E+00  0.9163E+00
    -19.465  0.1943E+01  0.9406E+00
    -19.452  0.1164E+01  0.9551E+00
    -19.440  0.6637E+00  0.9634E+00
    -19.427  0.1079E+01  0.9768E+00
    -19.415  0.1735E+01  0.9984E+00
    -19.402  0.2505E+00  0.1002E+01
    -19.390  0.2483E-02  0.1002E+01
    -19.377  0.1190E-01  0.1002E+01
    -19.365  0.7910E+00  0.1012E+01
    -19.352  0.3802E+01  0.1059E+01
    -19.340  0.2647E+01  0.1092E+01
    -19.327  0.1752E+01  0.1114E+01
    -19.315  0.2656E+00  0.1117E+01
    -19.302  0.9110E+00  0.1129E+01
    -19.290  0.1817E+01  0.1151E+01
    -19.278  0.5278E+00  0.1158E+01
    -19.265  0.9481E+00  0.1170E+01
    -19.253  0.5222E+00  0.1176E+01
    -19.240  0.1541E+01  0.1195E+01
    -19.228  0.1303E+01  0.1212E+01
    -19.215  0.9298E-01  0.1213E+01
    -19.203  0.1314E+00  0.1214E+01
    -19.190  0.1339E+01  0.1231E+01
    -19.178  0.2505E+01  0.1262E+01
    -19.165  0.2072E+01  0.1288E+01
    -19.153  0.3232E+01  0.1329E+01
    -19.140  0.1415E+01  0.1346E+01
    -19.128  0.8179E-01  0.1347E+01
    -19.115  0.2755E+00  0.1351E+01
    -19.103  0.1768E+01  0.1373E+01
    -19.090  0.9889E+00  0.1385E+01
    -19.078  0.1443E+00  0.1387E+01
    -19.065  0.8244E+00  0.1397E+01
    -19.053  0.6406E+00  0.1405E+01
    -19.041  0.1151E+01  0.1419E+01
    -19.028  0.1695E+01  0.1441E+01
    -19.016  0.8256E+00  0.1451E+01
    -19.003  0.2027E+01  0.1476E+01
    -18.991  0.1920E+01  0.1500E+01
    -18.978  0.1462E+01  0.1518E+01
    -18.966  0.2802E+00  0.1522E+01
    -18.953  0.2443E+01  0.1552E+01
    -18.941  0.3200E+01  0.1592E+01
    -18.928  0.3584E+00  0.1597E+01
    -18.916  0.6024E-02  0.1597E+01
    -18.903  0.2944E+00  0.1601E+01
    -18.891  0.1791E+01  0.1623E+01
    -18.878  0.9497E+00  0.1635E+01
    -18.866  0.4348E-01  0.1635E+01
    -18.853  0.2211E+00  0.1638E+01
    -18.841  0.9489E+00  0.1650E+01
    -18.828  0.6220E+00  0.1658E+01
    -18.816  0.2762E+01  0.1692E+01
    -18.804  0.3720E+01  0.1738E+01
    -18.791  0.1064E+01  0.1752E+01
    -18.779  0.1500E+01  0.1770E+01
    -18.766  0.1366E+01  0.1787E+01
    -18.754  0.1075E+00  0.1789E+01
    -18.741  0.2353E+00  0.1792E+01
    -18.729  0.2148E+01  0.1819E+01
    -18.716  0.2946E+01  0.1855E+01
    -18.704  0.7997E+00  0.1865E+01
    -18.691  0.2626E-01  0.1866E+01
    -18.679  0.5889E-01  0.1866E+01
    -18.666  0.1050E+01  0.1879E+01
    -18.654  0.1699E+01  0.1901E+01
    -18.641  0.2673E+00  0.1904E+01
    -18.629  0.6621E-02  0.1904E+01
    -18.616  0.3554E+00  0.1908E+01
    -18.604  0.2598E+01  0.1941E+01
    -18.591  0.2511E+01  0.1972E+01
    -18.579  0.3125E+01  0.2011E+01
    -18.566  0.2010E+01  0.2036E+01
    -18.554  0.9172E+00  0.2048E+01
    -18.542  0.1854E+01  0.2071E+01
    -18.529  0.4687E+00  0.2077E+01
    -18.517  0.1031E-01  0.2077E+01
    -18.504  0.1110E+00  0.2078E+01
    -18.492  0.1397E+01  0.2096E+01
    -18.479  0.1925E+01  0.2120E+01
    -18.467  0.2031E+01  0.2145E+01
    -18.454  0.6744E+00  0.2153E+01
    -18.442  0.1823E-01  0.2154E+01
    -18.429  0.6342E-01  0.2154E+01
    -18.417  0.1141E+01  0.2169E+01
    -18.404  0.1674E+01  0.2189E+01
    -18.392  0.6216E+00  0.2197E+01
    -18.379  0.2045E+01  0.2223E+01
    -18.367  0.1916E+01  0.2247E+01
    -18.354  0.1103E+01  0.2260E+01
    -18.342  0.2877E+01  0.2296E+01
    -18.329  0.1083E+01  0.2310E+01
    -18.317  0.1746E+01  0.2332E+01
    -18.305  0.1949E+01  0.2356E+01
    -18.292  0.1899E+01  0.2380E+01
    -18.280  0.3483E+00  0.2384E+01
    -18.267  0.4635E-02  0.2384E+01
    -18.255  0.4707E-02  0.2384E+01
    -18.242  0.3509E+00  0.2388E+01
    -18.230  0.1844E+01  0.2411E+01
    -18.217  0.9689E+00  0.2424E+01
    -18.205  0.1455E+01  0.2442E+01
    -18.192  0.1415E+01  0.2459E+01
    -18.180  0.1178E+00  0.2461E+01
    -18.167  0.2456E-01  0.2461E+01
    -18.155  0.1063E+01  0.2474E+01
    -18.142  0.3882E+01  0.2523E+01
    -18.130  0.2614E+01  0.2555E+01
    -18.117  0.1515E+01  0.2574E+01
    -18.105  0.2182E+00  0.2577E+01
    -18.092  0.1253E+01  0.2593E+01
    -18.080  0.1750E+01  0.2614E+01
    -18.068  0.1091E+01  0.2628E+01
    -18.055  0.5716E+00  0.2635E+01
    -18.043  0.1854E+01  0.2658E+01
    -18.030  0.3191E+01  0.2698E+01
    -18.018  0.9517E+00  0.2710E+01
    -18.005  0.3101E-01  0.2710E+01
    -17.993  0.6710E-04  0.2710E+01
    -17.980  0.2540E-02  0.2710E+01
    -17.968  0.2542E+00  0.2714E+01
    -17.955  0.1740E+01  0.2735E+01
    -17.943  0.1034E+01  0.2748E+01
    -17.930  0.2457E+00  0.2751E+01
    -17.918  0.1658E+01  0.2772E+01
    -17.905  0.1728E+01  0.2794E+01
    -17.893  0.2312E+01  0.2822E+01
    -17.880  0.1710E+01  0.2844E+01
    -17.868  0.1703E+01  0.2865E+01
    -17.855  0.3706E+01  0.2911E+01
    -17.843  0.8240E+00  0.2921E+01
    -17.831  0.8148E-01  0.2922E+01
    -17.818  0.1168E+01  0.2937E+01
    -17.806  0.1643E+01  0.2958E+01
    -17.793  0.2188E+00  0.2960E+01
    -17.781  0.4818E+00  0.2966E+01
    -17.768  0.9185E+00  0.2978E+01
    -17.756  0.1300E+01  0.2994E+01
    -17.743  0.3829E+01  0.3042E+01
    -17.731  0.1123E+01  0.3056E+01
    -17.718  0.2448E-01  0.3056E+01
    -17.706  0.3098E-04  0.3056E+01
    -17.693  0.7368E-04  0.3056E+01
    -17.681  0.3279E-01  0.3056E+01
    -17.668  0.8766E+00  0.3067E+01
    -17.656  0.1844E+01  0.3090E+01
    -17.643  0.9208E+00  0.3102E+01
    -17.631  0.2105E+01  0.3128E+01
    -17.618  0.3144E+01  0.3167E+01
    -17.606  0.3074E+01  0.3206E+01
    -17.594  0.4141E+00  0.3211E+01
    -17.581  0.1348E+01  0.3228E+01
    -17.569  0.1887E+01  0.3251E+01
    -17.556  0.2011E+01  0.3276E+01
    -17.544  0.7968E+00  0.3286E+01
    -17.531  0.4939E+00  0.3292E+01
    -17.519  0.1847E+01  0.3315E+01
    -17.506  0.7279E+00  0.3324E+01
    -17.494  0.2518E-01  0.3325E+01
    -17.481  0.2435E-01  0.3325E+01
    -17.469  0.5203E+00  0.3332E+01
    -17.456  0.1269E+01  0.3347E+01
    -17.444  0.2612E+01  0.3380E+01
    -17.431  0.2712E+01  0.3414E+01
    -17.419  0.5478E+00  0.3421E+01
    -17.406  0.1176E-01  0.3421E+01
    -17.394  0.9904E-01  0.3422E+01
    -17.381  0.8955E+00  0.3433E+01
    -17.369  0.2159E+01  0.3460E+01
    -17.357  0.5098E+01  0.3524E+01
    -17.344  0.5038E+01  0.3587E+01
    -17.332  0.3424E+01  0.3629E+01
    -17.319  0.3165E+01  0.3669E+01
    -17.307  0.2546E+01  0.3701E+01
    -17.294  0.4328E+01  0.3755E+01
    -17.282  0.3385E+01  0.3797E+01
    -17.269  0.3075E+01  0.3835E+01
    -17.257  0.2954E+01  0.3872E+01
    -17.244  0.3280E+01  0.3913E+01
    -17.232  0.2604E+01  0.3945E+01
    -17.219  0.2623E+01  0.3978E+01
    -17.207  0.4795E+01  0.4038E+01
    -17.194  0.2693E+01  0.4071E+01
    -17.182  0.1748E+01  0.4093E+01
    -17.169  0.6371E+00  0.4101E+01
    -17.157  0.2597E+01  0.4134E+01
    -17.144  0.3859E+01  0.4182E+01
    -17.132  0.3843E+01  0.4230E+01
    -17.120  0.4392E+01  0.4285E+01
    -17.107  0.3001E+01  0.4322E+01
    -17.095  0.2412E+01  0.4352E+01
    -17.082  0.3987E+01  0.4402E+01
    -17.070  0.4128E+01  0.4453E+01
    -17.057  0.3817E+01  0.4501E+01
    -17.045  0.4414E+01  0.4556E+01
    -17.032  0.3004E+01  0.4593E+01
    -17.020  0.3636E+01  0.4639E+01
    -17.007  0.6438E+01  0.4719E+01
    -16.995  0.3147E+01  0.4758E+01
    -16.982  0.1107E+01  0.4772E+01
    -16.970  0.3008E+01  0.4810E+01
    -16.957  0.6949E+01  0.4896E+01
    -16.945  0.5465E+01  0.4965E+01
    -16.932  0.3103E+01  0.5003E+01
    -16.920  0.2242E+01  0.5031E+01
    -16.907  0.2110E+01  0.5058E+01
    -16.895  0.5359E+01  0.5124E+01
    -16.883  0.6782E+01  0.5209E+01
    -16.870  0.5590E+01  0.5279E+01
    -16.858  0.2864E+01  0.5314E+01
    -16.845  0.2106E+01  0.5341E+01
    -16.833  0.4593E+01  0.5398E+01
    -16.820  0.7290E+01  0.5489E+01
    -16.808  0.5142E+01  0.5553E+01
    -16.795  0.6708E+01  0.5637E+01
    -16.783  0.1250E+02  0.5793E+01
    -16.770  0.8686E+01  0.5901E+01
    -16.758  0.6010E+01  0.5976E+01
    -16.745  0.7748E+01  0.6073E+01
    -16.733  0.7341E+01  0.6164E+01
    -16.720  0.3952E+01  0.6213E+01
    -16.708  0.3995E+01  0.6263E+01
    -16.695  0.3637E+01  0.6309E+01
    -16.683  0.3713E+01  0.6355E+01
    -16.670  0.1888E+01  0.6379E+01
    -16.658  0.1811E+00  0.6381E+01
    -16.646  0.1866E-01  0.6381E+01
    -16.633  0.6611E+00  0.6389E+01
    -16.621  0.1991E+01  0.6414E+01
    -16.608  0.1749E+01  0.6436E+01
    -16.596  0.1573E+01  0.6456E+01
    -16.583  0.1648E+00  0.6458E+01
    -16.571  0.1515E-01  0.6458E+01
    -16.558  0.6693E+00  0.6466E+01
    -16.546  0.3131E+01  0.6505E+01
    -16.533  0.2149E+01  0.6532E+01
    -16.521  0.1925E+00  0.6534E+01
    -16.508  0.1374E-02  0.6534E+01
    -16.496  0.6647E-05  0.6534E+01
    -16.483  0.6734E-02  0.6534E+01
    -16.471  0.4212E+00  0.6540E+01
    -16.458  0.2008E+01  0.6565E+01
    -16.446  0.2993E+01  0.6602E+01
    -16.433  0.3999E+01  0.6652E+01
    -16.421  0.1387E+01  0.6669E+01
    -16.409  0.2319E+01  0.6698E+01
    -16.396  0.3327E+01  0.6740E+01
    -16.384  0.4668E+00  0.6746E+01
    -16.371  0.1818E-01  0.6746E+01
    -16.359  0.5853E+00  0.6753E+01
    -16.346  0.1917E+01  0.6777E+01
    -16.334  0.7619E+00  0.6786E+01
    -16.321  0.1676E+01  0.6807E+01
    -16.309  0.1140E+01  0.6822E+01
    -16.296  0.8517E-01  0.6823E+01
    -16.284  0.7364E+00  0.6832E+01
    -16.271  0.1888E+01  0.6855E+01
    -16.259  0.4388E+00  0.6861E+01
    -16.246  0.5859E+00  0.6868E+01
    -16.234  0.1915E+01  0.6892E+01
    -16.221  0.5590E+00  0.6899E+01
    -16.209  0.1760E-01  0.6899E+01
    -16.196  0.5183E+00  0.6906E+01
    -16.184  0.3451E+01  0.6949E+01
    -16.172  0.2076E+01  0.6975E+01
    -16.159  0.1300E+00  0.6976E+01
    -16.147  0.6460E+00  0.6984E+01
    -16.134  0.2361E+01  0.7014E+01
    -16.122  0.1544E+01  0.7033E+01
    -16.109  0.1234E+01  0.7048E+01
    -16.097  0.1684E+01  0.7069E+01
    -16.084  0.7748E+00  0.7079E+01
    -16.072  0.2191E+01  0.7106E+01
    -16.059  0.2942E+01  0.7143E+01
    -16.047  0.1916E+01  0.7167E+01
    -16.034  0.1197E+01  0.7182E+01
    -16.022  0.1717E+01  0.7203E+01
    -16.009  0.3892E+00  0.7208E+01
    -15.997  0.1529E+01  0.7227E+01
    -15.984  0.1307E+01  0.7244E+01
    -15.972  0.9771E-01  0.7245E+01
    -15.959  0.3696E+00  0.7249E+01
    -15.947  0.1857E+01  0.7273E+01
    -15.935  0.8334E+00  0.7283E+01
    -15.922  0.6333E+00  0.7291E+01
    -15.910  0.1914E+01  0.7315E+01
    -15.897  0.5338E+00  0.7321E+01
    -15.885  0.1244E-01  0.7322E+01
    -15.872  0.1907E+00  0.7324E+01
    -15.860  0.1626E+01  0.7344E+01
    -15.847  0.1189E+01  0.7359E+01
    -15.835  0.9149E-01  0.7360E+01
    -15.822  0.8773E+00  0.7371E+01
    -15.810  0.4410E+01  0.7426E+01
    -15.797  0.4181E+01  0.7478E+01
    -15.785  0.2250E+01  0.7506E+01
    -15.772  0.5889E+00  0.7514E+01
    -15.760  0.7813E+00  0.7524E+01
    -15.747  0.1858E+01  0.7547E+01
    -15.735  0.4191E+00  0.7552E+01
    -15.722  0.1673E-01  0.7552E+01
    -15.710  0.6873E+00  0.7561E+01
    -15.697  0.3649E+01  0.7606E+01
    -15.685  0.1876E+01  0.7630E+01
    -15.673  0.9447E+00  0.7641E+01
    -15.660  0.6893E+00  0.7650E+01
    -15.648  0.1620E+01  0.7670E+01
    -15.635  0.1963E+01  0.7695E+01
    -15.623  0.1956E+01  0.7719E+01
    -15.610  0.4495E+00  0.7725E+01
    -15.598  0.8431E-02  0.7725E+01
    -15.585  0.4060E-01  0.7725E+01
    -15.573  0.9578E+00  0.7737E+01
    -15.560  0.1803E+01  0.7760E+01
    -15.548  0.9098E+00  0.7771E+01
    -15.535  0.1895E+01  0.7795E+01
    -15.523  0.5390E+00  0.7801E+01
    -15.510  0.1208E-01  0.7802E+01
    -15.498  0.2677E-02  0.7802E+01
    -15.485  0.2813E+00  0.7805E+01
    -15.473  0.2401E+01  0.7835E+01
    -15.460  0.3433E+01  0.7878E+01
    -15.448  0.1809E+01  0.7900E+01
    -15.436  0.3213E+01  0.7941E+01
    -15.423  0.4074E+01  0.7991E+01
    -15.411  0.1612E+01  0.8011E+01
    -15.398  0.6053E+00  0.8019E+01
    -15.386  0.1909E+01  0.8043E+01
    -15.373  0.6525E+00  0.8051E+01
    -15.361  0.1683E-01  0.8051E+01
    -15.348  0.1897E-01  0.8051E+01
    -15.336  0.7140E+00  0.8060E+01
    -15.323  0.2663E+01  0.8094E+01
    -15.311  0.2327E+01  0.8123E+01
    -15.298  0.6526E+00  0.8131E+01
    -15.286  0.9599E+00  0.8143E+01
    -15.273  0.7182E+00  0.8152E+01
    -15.261  0.2326E+01  0.8181E+01
    -15.248  0.2744E+01  0.8215E+01
    -15.236  0.7101E+00  0.8224E+01
    -15.223  0.1847E-01  0.8224E+01
    -15.211  0.1396E-02  0.8224E+01
    -15.199  0.1739E+00  0.8226E+01
    -15.186  0.1560E+01  0.8246E+01
    -15.174  0.1414E+01  0.8263E+01
    -15.161  0.1635E+01  0.8284E+01
    -15.149  0.1284E+01  0.8300E+01
    -15.136  0.1097E+00  0.8301E+01
    -15.124  0.7413E+00  0.8310E+01
    -15.111  0.2329E+01  0.8339E+01
    -15.099  0.3714E+01  0.8386E+01
    -15.086  0.2304E+01  0.8414E+01
    -15.074  0.8509E+00  0.8425E+01
    -15.061  0.2942E+01  0.8462E+01
    -15.049  0.3601E+01  0.8507E+01
    -15.036  0.1832E+01  0.8530E+01
    -15.024  0.8712E+00  0.8540E+01
    -15.011  0.1894E+01  0.8564E+01
    -14.999  0.4402E+00  0.8570E+01
    -14.986  0.2250E-01  0.8570E+01
    -14.974  0.6281E+00  0.8578E+01
    -14.962  0.2509E+01  0.8609E+01
    -14.949  0.5152E+01  0.8673E+01
    -14.937  0.6911E+01  0.8759E+01
    -14.924  0.2956E+01  0.8796E+01
    -14.912  0.3448E+01  0.8839E+01
    -14.899  0.4943E+01  0.8901E+01
    -14.887  0.3770E+01  0.8948E+01
    -14.874  0.4950E+01  0.9010E+01
    -14.862  0.2953E+01  0.9047E+01
    -14.849  0.1152E+01  0.9061E+01
    -14.837  0.5742E+01  0.9133E+01
    -14.824  0.6160E+01  0.9209E+01
    -14.812  0.3630E+01  0.9255E+01
    -14.799  0.3846E+01  0.9303E+01
    -14.787  0.4428E+01  0.9358E+01
    -14.774  0.5278E+01  0.9424E+01
    -14.762  0.8413E+01  0.9529E+01
    -14.749  0.7828E+01  0.9626E+01
    -14.737  0.5679E+01  0.9697E+01
    -14.725  0.8395E+01  0.9802E+01
    -14.712  0.6260E+01  0.9880E+01
    -14.700  0.5987E+01  0.9955E+01
    -14.687  0.4979E+01  0.1002E+02
    -14.675  0.3147E+01  0.1006E+02
    -14.662  0.3572E+01  0.1010E+02
    -14.650  0.4992E+01  0.1016E+02
    -14.637  0.3606E+01  0.1021E+02
    -14.625  0.1893E+01  0.1023E+02
    -14.612  0.4796E+01  0.1029E+02
    -14.600  0.2841E+01  0.1033E+02
    -14.587  0.1987E+01  0.1035E+02
    -14.575  0.1057E+01  0.1036E+02
    -14.562  0.6928E+00  0.1037E+02
    -14.550  0.2646E+01  0.1041E+02
    -14.537  0.5759E+01  0.1048E+02
    -14.525  0.4540E+01  0.1053E+02
    -14.512  0.1756E+01  0.1056E+02
    -14.500  0.1771E+01  0.1058E+02
    -14.488  0.2109E+01  0.1061E+02
    -14.475  0.1313E+01  0.1062E+02
    -14.463  0.4052E+01  0.1067E+02
    -14.450  0.4051E+01  0.1072E+02
    -14.438  0.5910E+00  0.1073E+02
    -14.425  0.8622E+00  0.1074E+02
    -14.413  0.2520E+01  0.1077E+02
    -14.400  0.2889E+01  0.1081E+02
    -14.388  0.3316E+01  0.1085E+02
    -14.375  0.5503E+01  0.1092E+02
    -14.363  0.5734E+01  0.1099E+02
    -14.350  0.2224E+01  0.1102E+02
    -14.338  0.3034E+01  0.1106E+02
    -14.325  0.3414E+01  0.1110E+02
    -14.313  0.3227E+01  0.1114E+02
    -14.300  0.4633E+01  0.1120E+02
    -14.288  0.4339E+01  0.1125E+02
    -14.275  0.2581E+01  0.1128E+02
    -14.263  0.1735E+01  0.1130E+02
    -14.251  0.1045E+01  0.1132E+02
    -14.238  0.2332E+01  0.1135E+02
    -14.226  0.1637E+01  0.1137E+02
    -14.213  0.2568E+01  0.1140E+02
    -14.201  0.3576E+01  0.1144E+02
    -14.188  0.1833E+01  0.1147E+02
    -14.176  0.1540E+01  0.1149E+02
    -14.163  0.2343E+01  0.1151E+02
    -14.151  0.2356E+01  0.1154E+02
    -14.138  0.1458E+01  0.1156E+02
    -14.126  0.2191E+01  0.1159E+02
    -14.113  0.4317E+01  0.1164E+02
    -14.101  0.3058E+01  0.1168E+02
    -14.088  0.1655E+01  0.1170E+02
    -14.076  0.3164E+01  0.1174E+02
    -14.063  0.2443E+01  0.1177E+02
    -14.051  0.5453E+01  0.1184E+02
    -14.038  0.7645E+01  0.1194E+02
    -14.026  0.6916E+01  0.1202E+02
    -14.014  0.3179E+01  0.1206E+02
    -14.001  0.2959E+01  0.1210E+02
    -13.989  0.3103E+01  0.1214E+02
    -13.976  0.2774E+01  0.1217E+02
    -13.964  0.2640E+01  0.1220E+02
    -13.951  0.3751E+01  0.1225E+02
    -13.939  0.2511E+01  0.1228E+02
    -13.926  0.4228E+00  0.1229E+02
    -13.914  0.3290E+01  0.1233E+02
    -13.901  0.7291E+01  0.1242E+02
    -13.889  0.4830E+01  0.1248E+02
    -13.876  0.2589E+01  0.1251E+02
    -13.864  0.3773E+01  0.1256E+02
    -13.851  0.7007E+01  0.1265E+02
    -13.839  0.5765E+01  0.1272E+02
    -13.826  0.4424E+01  0.1277E+02
    -13.814  0.6373E+01  0.1285E+02
    -13.801  0.8739E+01  0.1296E+02
    -13.789  0.5187E+01  0.1303E+02
    -13.777  0.4553E+01  0.1308E+02
    -13.764  0.5947E+01  0.1316E+02
    -13.752  0.6222E+01  0.1324E+02
    -13.739  0.5888E+01  0.1331E+02
    -13.727  0.3219E+01  0.1335E+02
    -13.714  0.6021E+01  0.1342E+02
    -13.702  0.6196E+01  0.1350E+02
    -13.689  0.2250E+01  0.1353E+02
    -13.677  0.2845E+01  0.1357E+02
    -13.664  0.8021E+01  0.1367E+02
    -13.652  0.5992E+01  0.1374E+02
    -13.639  0.2582E+01  0.1377E+02
    -13.627  0.2528E+01  0.1380E+02
    -13.614  0.4048E+01  0.1385E+02
    -13.602  0.3146E+01  0.1389E+02
    -13.589  0.3758E+01  0.1394E+02
    -13.577  0.3598E+01  0.1399E+02
    -13.564  0.1829E+01  0.1401E+02
    -13.552  0.3304E+01  0.1405E+02
    -13.540  0.4162E+01  0.1410E+02
    -13.527  0.2474E+01  0.1413E+02
    -13.515  0.3169E+01  0.1417E+02
    -13.502  0.3294E+01  0.1421E+02
    -13.490  0.2066E+01  0.1424E+02
    -13.477  0.8469E+00  0.1425E+02
    -13.465  0.2787E+01  0.1428E+02
    -13.452  0.1529E+01  0.1430E+02
    -13.440  0.2003E+01  0.1433E+02
    -13.427  0.2391E+01  0.1436E+02
    -13.415  0.3641E+01  0.1440E+02
    -13.402  0.7985E+00  0.1441E+02
    -13.390  0.5052E+00  0.1442E+02
    -13.377  0.8852E+00  0.1443E+02
    -13.365  0.1385E+00  0.1443E+02
    -13.352  0.2408E-02  0.1443E+02
    -13.340  0.1458E+00  0.1443E+02
    -13.327  0.1630E+01  0.1445E+02
    -13.315  0.2756E+01  0.1449E+02
    -13.303  0.1508E+01  0.1451E+02
    -13.290  0.2907E+00  0.1451E+02
    -13.278  0.1810E+01  0.1453E+02
    -13.265  0.2615E+01  0.1457E+02
    -13.253  0.1905E+01  0.1459E+02
    -13.240  0.2109E+01  0.1462E+02
    -13.228  0.6071E+00  0.1462E+02
    -13.215  0.1431E-01  0.1462E+02
    -13.203  0.2941E-01  0.1462E+02
    -13.190  0.9151E+00  0.1464E+02
    -13.178  0.3412E+01  0.1468E+02
    -13.165  0.2930E+01  0.1471E+02
    -13.153  0.4043E+00  0.1472E+02
    -13.140  0.4793E-02  0.1472E+02
    -13.128  0.3572E-04  0.1472E+02
    -13.115  0.1957E-01  0.1472E+02
    -13.103  0.6998E+00  0.1473E+02
    -13.090  0.1975E+01  0.1475E+02
    -13.078  0.1684E+01  0.1477E+02
    -13.066  0.1960E+01  0.1480E+02
    -13.053  0.2191E+01  0.1483E+02
    -13.041  0.2900E+01  0.1486E+02
    -13.028  0.2220E+01  0.1489E+02
    -13.016  0.3718E+00  0.1489E+02
    -13.003  0.1857E+01  0.1492E+02
    -12.991  0.3049E+01  0.1496E+02
    -12.978  0.1041E+01  0.1497E+02
    -12.966  0.4092E-01  0.1497E+02
    -12.953  0.8583E-03  0.1497E+02
    -12.941  0.9583E-01  0.1497E+02
    -12.928  0.8144E+00  0.1498E+02
    -12.916  0.6713E+00  0.1499E+02
    -12.903  0.1826E+01  0.1501E+02
    -12.891  0.4674E+01  0.1507E+02
    -12.878  0.2538E+01  0.1510E+02
    -12.866  0.1655E+01  0.1512E+02
    -12.853  0.2566E+01  0.1515E+02
    -12.841  0.5417E+00  0.1516E+02
    -12.829  0.4375E-01  0.1516E+02
    -12.816  0.6428E+00  0.1517E+02
    -12.804  0.2455E+01  0.1520E+02
    -12.791  0.5193E+01  0.1527E+02
    -12.779  0.2410E+01  0.1530E+02
    -12.766  0.1740E+01  0.1532E+02
    -12.754  0.2496E+01  0.1535E+02
    -12.741  0.4283E+00  0.1535E+02
    -12.729  0.6002E+00  0.1536E+02
    -12.716  0.2154E+01  0.1539E+02
    -12.704  0.2734E+01  0.1542E+02
    -12.691  0.3006E+01  0.1546E+02
    -12.679  0.7158E+00  0.1547E+02
    -12.666  0.1738E-01  0.1547E+02
    -12.654  0.2624E-04  0.1547E+02
    -12.641  0.2981E-04  0.1547E+02
    -12.629  0.1778E-01  0.1547E+02
    -12.616  0.7411E+00  0.1548E+02
    -12.604  0.3451E+01  0.1552E+02
    -12.591  0.3634E+01  0.1557E+02
    -12.579  0.1597E+01  0.1559E+02
    -12.567  0.2016E+01  0.1561E+02
    -12.554  0.2603E+01  0.1564E+02
    -12.542  0.1282E+01  0.1566E+02
    -12.529  0.8674E+00  0.1567E+02
    -12.517  0.2191E+01  0.1570E+02
    -12.504  0.2208E+01  0.1573E+02
    -12.492  0.9055E+00  0.1574E+02
    -12.479  0.4537E-01  0.1574E+02
    -12.467  0.5226E+00  0.1574E+02
    -12.454  0.1930E+01  0.1577E+02
    -12.442  0.1280E+01  0.1578E+02
    -12.429  0.1921E+01  0.1581E+02
    -12.417  0.5402E+00  0.1581E+02
    -12.404  0.1130E+01  0.1583E+02
    -12.392  0.2542E+01  0.1586E+02
    -12.379  0.2075E+01  0.1589E+02
    -12.367  0.3568E+00  0.1589E+02
    -12.354  0.5415E-02  0.1589E+02
    -12.342  0.8508E-01  0.1589E+02
    -12.330  0.7988E+00  0.1590E+02
    -12.317  0.1328E+01  0.1592E+02
    -12.305  0.3922E+01  0.1597E+02
    -12.292  0.2973E+01  0.1600E+02
    -12.280  0.2205E+01  0.1603E+02
    -12.267  0.9662E+00  0.1604E+02
    -12.255  0.5573E+00  0.1605E+02
    -12.242  0.3450E+01  0.1609E+02
    -12.230  0.2078E+01  0.1612E+02
    -12.217  0.1048E+00  0.1612E+02
    -12.205  0.3416E-03  0.1612E+02
    -12.192  0.6178E-07  0.1612E+02
    -12.180  0.1555E-04  0.1612E+02
    -12.167  0.1240E-01  0.1612E+02
    -12.155  0.5943E+00  0.1613E+02
    -12.142  0.2750E+01  0.1616E+02
    -12.130  0.2460E+01  0.1619E+02
    -12.117  0.1294E+01  0.1621E+02
    -12.105  0.1812E+01  0.1623E+02
    -12.093  0.3571E+00  0.1624E+02
    -12.080  0.1443E+01  0.1626E+02
    -12.068  0.3713E+01  0.1630E+02
    -12.055  0.9420E+00  0.1631E+02
    -12.043  0.3863E+00  0.1632E+02
    -12.030  0.1841E+01  0.1634E+02
    -12.018  0.8465E+00  0.1635E+02
    -12.005  0.5596E+00  0.1636E+02
    -11.993  0.2034E+01  0.1638E+02
    -11.980  0.2155E+01  0.1641E+02
    -11.968  0.1363E+01  0.1643E+02
    -11.955  0.9461E+00  0.1644E+02
    -11.943  0.1843E+01  0.1646E+02
    -11.930  0.3490E+00  0.1647E+02
    -11.918  0.4656E-02  0.1647E+02
    -11.905  0.2843E-02  0.1647E+02
    -11.893  0.2697E+00  0.1647E+02
    -11.880  0.1761E+01  0.1649E+02
    -11.868  0.9997E+00  0.1651E+02
    -11.856  0.9702E-01  0.1651E+02
    -11.843  0.1280E+01  0.1652E+02
    -11.831  0.4001E+01  0.1657E+02
    -11.818  0.2499E+01  0.1660E+02
    -11.806  0.1948E+01  0.1663E+02
    -11.793  0.1312E+01  0.1664E+02
    -11.781  0.9906E+00  0.1666E+02
    -11.768  0.2350E+00  0.1666E+02
    -11.756  0.4190E+00  0.1666E+02
    -11.743  0.1883E+01  0.1669E+02
    -11.731  0.7844E+00  0.1670E+02
    -11.718  0.9060E+00  0.1671E+02
    -11.706  0.1853E+01  0.1673E+02
    -11.693  0.1085E+01  0.1675E+02
    -11.681  0.1863E+01  0.1677E+02
    -11.668  0.4473E+00  0.1677E+02
    -11.656  0.6297E+00  0.1678E+02
    -11.643  0.1912E+01  0.1681E+02
    -11.631  0.5187E+00  0.1681E+02
    -11.619  0.1031E-01  0.1681E+02
    -11.606  0.1192E-04  0.1681E+02
    -11.594  0.5955E-03  0.1681E+02
    -11.581  0.1139E+00  0.1681E+02
    -11.569  0.1448E+01  0.1683E+02
    -11.556  0.2525E+01  0.1686E+02
    -11.544  0.3004E+01  0.1690E+02
    -11.531  0.3511E+01  0.1695E+02
    -11.519  0.3811E+01  0.1699E+02
    -11.506  0.9544E+00  0.1700E+02
    -11.494  0.2365E-01  0.1700E+02
    -11.481  0.1069E-03  0.1700E+02
    -11.469  0.3121E-01  0.1701E+02
    -11.456  0.8584E+00  0.1702E+02
    -11.444  0.1839E+01  0.1704E+02
    -11.431  0.3450E+00  0.1704E+02
    -11.419  0.4698E-02  0.1704E+02
    -11.406  0.4624E-01  0.1704E+02
    -11.394  0.9722E+00  0.1706E+02
    -11.382  0.1758E+01  0.1708E+02
    -11.369  0.2990E+00  0.1708E+02
    -11.357  0.1398E+00  0.1708E+02
    -11.344  0.1500E+01  0.1710E+02
    -11.332  0.2095E+01  0.1713E+02
    -11.319  0.2379E+01  0.1716E+02
    -11.307  0.1548E+01  0.1718E+02
    -11.294  0.1798E+01  0.1720E+02
    -11.282  0.1238E+01  0.1722E+02
    -11.269  0.7886E-01  0.1722E+02
    -11.257  0.2531E-01  0.1722E+02
    -11.244  0.8600E+00  0.1723E+02
    -11.232  0.2897E+01  0.1726E+02
    -11.219  0.2710E+01  0.1730E+02
    -11.207  0.1969E+01  0.1732E+02
    -11.194  0.7263E+00  0.1733E+02
    -11.182  0.4753E-01  0.1733E+02
    -11.169  0.1557E-01  0.1733E+02
    -11.157  0.7217E+00  0.1734E+02
    -11.145  0.2861E+01  0.1738E+02
    -11.132  0.2348E+01  0.1741E+02
    -11.120  0.1577E+01  0.1743E+02
    -11.107  0.1719E+00  0.1743E+02
    -11.095  0.1392E-02  0.1743E+02
    -11.082  0.5236E-04  0.1743E+02
    -11.070  0.2948E-01  0.1743E+02
    -11.057  0.1141E+01  0.1744E+02
    -11.045  0.4588E+01  0.1750E+02
    -11.032  0.3119E+01  0.1754E+02
    -11.020  0.8072E+00  0.1755E+02
    -11.007  0.1899E+01  0.1757E+02
    -10.995  0.7110E+00  0.1758E+02
    -10.982  0.2067E+00  0.1758E+02
    -10.970  0.2202E+01  0.1761E+02
    -10.957  0.3250E+01  0.1765E+02
    -10.945  0.2845E+01  0.1769E+02
    -10.932  0.3381E+01  0.1773E+02
    -10.920  0.4452E+00  0.1773E+02
    -10.908  0.4035E-02  0.1773E+02
    -10.895  0.2030E-05  0.1773E+02
    -10.883  0.3440E-05  0.1773E+02
    -10.870  0.4627E-02  0.1773E+02
    -10.858  0.3479E+00  0.1774E+02
    -10.845  0.1841E+01  0.1776E+02
    -10.833  0.8546E+00  0.1777E+02
    -10.820  0.1571E+00  0.1777E+02
    -10.808  0.1311E+01  0.1779E+02
    -10.795  0.1876E+01  0.1781E+02
    -10.783  0.2792E+01  0.1785E+02
    -10.770  0.3272E+01  0.1789E+02
    -10.758  0.1959E+01  0.1791E+02
    -10.745  0.1995E+01  0.1794E+02
    -10.733  0.1049E+01  0.1795E+02
    -10.720  0.3450E+01  0.1800E+02
    -10.708  0.2522E+01  0.1803E+02
    -10.695  0.2005E+01  0.1805E+02
    -10.683  0.7104E+00  0.1806E+02
    -10.671  0.2058E-01  0.1806E+02
    -10.658  0.8948E-01  0.1806E+02
    -10.646  0.1660E+01  0.1808E+02
    -10.633  0.3471E+01  0.1813E+02
    -10.621  0.1626E+01  0.1815E+02
    -10.608  0.1580E+01  0.1817E+02
    -10.596  0.2574E+01  0.1820E+02
    -10.583  0.1975E+01  0.1822E+02
    -10.571  0.2182E+01  0.1825E+02
    -10.558  0.3561E+01  0.1829E+02
    -10.546  0.3765E+01  0.1834E+02
    -10.533  0.1127E+01  0.1836E+02
    -10.521  0.3854E+01  0.1840E+02
    -10.508  0.4909E+01  0.1846E+02
    -10.496  0.4551E+01  0.1852E+02
    -10.483  0.5397E+01  0.1859E+02
    -10.471  0.3767E+01  0.1864E+02
    -10.458  0.2836E+01  0.1867E+02
    -10.446  0.5130E+01  0.1874E+02
    -10.434  0.3162E+01  0.1877E+02
    -10.421  0.2323E+01  0.1880E+02
    -10.409  0.1137E+01  0.1882E+02
    -10.396  0.2687E+01  0.1885E+02
    -10.384  0.2531E+01  0.1888E+02
    -10.371  0.2665E+01  0.1892E+02
    -10.359  0.4045E+01  0.1897E+02
    -10.346  0.7217E+01  0.1906E+02
    -10.334  0.7247E+01  0.1915E+02
    -10.321  0.5053E+01  0.1921E+02
    -10.309  0.1920E+01  0.1923E+02
    -10.296  0.1075E+01  0.1925E+02
    -10.284  0.4715E+01  0.1931E+02
    -10.271  0.5042E+01  0.1937E+02
    -10.259  0.3349E+01  0.1941E+02
    -10.246  0.3834E+01  0.1946E+02
    -10.234  0.5902E+01  0.1953E+02
    -10.221  0.4289E+01  0.1959E+02
    -10.209  0.1709E+01  0.1961E+02
    -10.197  0.4025E+01  0.1966E+02
    -10.184  0.3538E+01  0.1970E+02
    -10.172  0.3881E+01  0.1975E+02
    -10.159  0.4558E+01  0.1981E+02
    -10.147  0.7242E+01  0.1990E+02
    -10.134  0.6037E+01  0.1997E+02
    -10.122  0.3752E+01  0.2002E+02
    -10.109  0.3945E+01  0.2007E+02
    -10.097  0.2400E+01  0.2010E+02
    -10.084  0.2850E+01  0.2013E+02
    -10.072  0.1009E+02  0.2026E+02
    -10.059  0.7494E+01  0.2035E+02
    -10.047  0.3055E+01  0.2039E+02
    -10.034  0.1293E+01  0.2041E+02
    -10.022  0.1549E+01  0.2043E+02
    -10.009  0.1420E+01  0.2044E+02
     -9.997  0.1020E+01  0.2046E+02
     -9.984  0.3888E+01  0.2051E+02
     -9.972  0.5896E+01  0.2058E+02
     -9.960  0.3838E+01  0.2063E+02
     -9.947  0.3263E+01  0.2067E+02
     -9.935  0.1032E+01  0.2068E+02
     -9.922  0.3309E+01  0.2072E+02
     -9.910  0.4702E+01  0.2078E+02
     -9.897  0.4535E+01  0.2084E+02
     -9.885  0.3643E+01  0.2088E+02
     -9.872  0.3065E+01  0.2092E+02
     -9.860  0.3533E+01  0.2096E+02
     -9.847  0.3179E+01  0.2100E+02
     -9.835  0.2552E+01  0.2104E+02
     -9.822  0.1655E+01  0.2106E+02
     -9.810  0.2816E+00  0.2106E+02
     -9.797  0.8435E+00  0.2107E+02
     -9.785  0.6516E+00  0.2108E+02
     -9.772  0.1710E+01  0.2110E+02
     -9.760  0.4135E+01  0.2115E+02
     -9.747  0.2178E+01  0.2118E+02
     -9.735  0.2678E+01  0.2121E+02
     -9.723  0.2315E+01  0.2124E+02
     -9.710  0.6330E+01  0.2132E+02
     -9.698  0.9399E+01  0.2144E+02
     -9.685  0.8078E+01  0.2154E+02
     -9.673  0.7873E+01  0.2164E+02
     -9.660  0.6442E+01  0.2172E+02
     -9.648  0.2561E+01  0.2175E+02
     -9.635  0.7830E+00  0.2176E+02
     -9.623  0.2176E+01  0.2179E+02
     -9.610  0.3614E+01  0.2183E+02
     -9.598  0.2038E+01  0.2186E+02
     -9.585  0.2665E+01  0.2189E+02
     -9.573  0.5100E+01  0.2195E+02
     -9.560  0.4595E+01  0.2201E+02
     -9.548  0.2583E+01  0.2204E+02
     -9.535  0.4582E+01  0.2210E+02
     -9.523  0.3364E+01  0.2214E+02
     -9.510  0.1670E+01  0.2216E+02
     -9.498  0.9614E+00  0.2217E+02
     -9.485  0.1729E+01  0.2220E+02
     -9.473  0.1978E+01  0.2222E+02
     -9.461  0.4529E+01  0.2228E+02
     -9.448  0.2736E+01  0.2231E+02
     -9.436  0.3001E+01  0.2235E+02
     -9.423  0.2525E+01  0.2238E+02
     -9.411  0.3026E+01  0.2242E+02
     -9.398  0.2741E+01  0.2245E+02
     -9.386  0.3360E+01  0.2249E+02
     -9.373  0.3123E+01  0.2253E+02
     -9.361  0.4299E+01  0.2259E+02
     -9.348  0.8380E+01  0.2269E+02
     -9.336  0.6061E+01  0.2277E+02
     -9.323  0.5240E+01  0.2283E+02
     -9.311  0.6223E+01  0.2291E+02
     -9.298  0.3574E+01  0.2295E+02
     -9.286  0.3003E+01  0.2299E+02
     -9.273  0.1749E+01  0.2301E+02
     -9.261  0.1669E+01  0.2303E+02
     -9.248  0.2040E+01  0.2306E+02
     -9.236  0.1561E+01  0.2308E+02
     -9.224  0.2867E+00  0.2308E+02
     -9.211  0.8884E+00  0.2309E+02
     -9.199  0.6092E+00  0.2310E+02
     -9.186  0.1378E+01  0.2312E+02
     -9.174  0.3210E+01  0.2316E+02
     -9.161  0.5290E+01  0.2323E+02
     -9.149  0.5264E+01  0.2329E+02
     -9.136  0.7015E+01  0.2338E+02
     -9.124  0.8514E+01  0.2348E+02
     -9.111  0.4605E+01  0.2354E+02
     -9.099  0.4943E+01  0.2360E+02
     -9.086  0.5555E+01  0.2367E+02
     -9.074  0.3078E+01  0.2371E+02
     -9.061  0.5063E+00  0.2372E+02
     -9.049  0.2697E+01  0.2375E+02
     -9.036  0.4203E+01  0.2380E+02
     -9.024  0.2108E+01  0.2383E+02
     -9.011  0.1771E+01  0.2385E+02
     -8.999  0.1587E+01  0.2387E+02
     -8.987  0.2432E+01  0.2390E+02
     -8.974  0.2540E+01  0.2393E+02
     -8.962  0.4194E+01  0.2399E+02
     -8.949  0.3662E+01  0.2403E+02
     -8.937  0.2112E+01  0.2406E+02
     -8.924  0.1974E+01  0.2408E+02
     -8.912  0.3367E+01  0.2412E+02
     -8.899  0.4913E+01  0.2419E+02
     -8.887  0.7621E+01  0.2428E+02
     -8.874  0.8917E+01  0.2439E+02
     -8.862  0.7906E+01  0.2449E+02
     -8.849  0.6038E+01  0.2457E+02
     -8.837  0.4866E+01  0.2463E+02
     -8.824  0.4708E+01  0.2469E+02
     -8.812  0.2671E+01  0.2472E+02
     -8.799  0.9974E+00  0.2473E+02
     -8.787  0.9317E-01  0.2473E+02
     -8.774  0.7115E-03  0.2473E+02
     -8.762  0.1145E-01  0.2473E+02
     -8.750  0.5554E+00  0.2474E+02
     -8.737  0.2963E+01  0.2478E+02
     -8.725  0.4430E+01  0.2483E+02
     -8.712  0.1256E+01  0.2485E+02
     -8.700  0.8279E+00  0.2486E+02
     -8.687  0.5221E+01  0.2492E+02
     -8.675  0.6954E+01  0.2501E+02
     -8.662  0.3579E+01  0.2505E+02
     -8.650  0.8303E+00  0.2506E+02
     -8.637  0.1625E+01  0.2509E+02
     -8.625  0.5244E+01  0.2515E+02
     -8.612  0.7920E+01  0.2525E+02
     -8.600  0.1022E+02  0.2538E+02
     -8.587  0.6094E+01  0.2545E+02
     -8.575  0.2111E+01  0.2548E+02
     -8.562  0.5409E+00  0.2549E+02
     -8.550  0.1847E+01  0.2551E+02
     -8.537  0.9173E+00  0.2552E+02
     -8.525  0.1412E+01  0.2554E+02
     -8.513  0.3431E+01  0.2558E+02
     -8.500  0.4058E+01  0.2563E+02
     -8.488  0.7845E+01  0.2573E+02
     -8.475  0.5581E+01  0.2580E+02
     -8.463  0.1003E+01  0.2581E+02
     -8.450  0.2234E+01  0.2584E+02
     -8.438  0.2142E+01  0.2587E+02
     -8.425  0.2056E+01  0.2589E+02
     -8.413  0.3104E+01  0.2593E+02
     -8.400  0.4424E+01  0.2599E+02
     -8.388  0.3652E+01  0.2603E+02
     -8.375  0.1805E+01  0.2605E+02
     -8.363  0.1822E+01  0.2608E+02
     -8.350  0.2705E+01  0.2611E+02
     -8.338  0.6999E+01  0.2620E+02
     -8.325  0.5028E+01  0.2626E+02
     -8.313  0.3134E+01  0.2630E+02
     -8.300  0.3668E+01  0.2635E+02
     -8.288  0.1027E+02  0.2647E+02
     -8.276  0.7035E+01  0.2656E+02
     -8.263  0.4791E+01  0.2662E+02
     -8.251  0.4916E+01  0.2668E+02
     -8.238  0.3378E+01  0.2672E+02
     -8.226  0.4368E+01  0.2678E+02
     -8.213  0.5705E+01  0.2685E+02
     -8.201  0.5043E+01  0.2691E+02
     -8.188  0.2104E+01  0.2694E+02
     -8.176  0.2156E+01  0.2697E+02
     -8.163  0.2992E+01  0.2700E+02
     -8.151  0.2329E+01  0.2703E+02
     -8.138  0.1687E+01  0.2705E+02
     -8.126  0.3319E+01  0.2709E+02
     -8.113  0.6274E+01  0.2717E+02
     -8.101  0.1041E+02  0.2730E+02
     -8.088  0.4965E+01  0.2736E+02
     -8.076  0.7752E+01  0.2746E+02
     -8.063  0.8451E+01  0.2757E+02
     -8.051  0.3800E+01  0.2761E+02
     -8.039  0.2719E+01  0.2765E+02
     -8.026  0.4072E+01  0.2770E+02
     -8.014  0.3460E+01  0.2774E+02
     -8.001  0.2026E+01  0.2777E+02
     -7.989  0.1808E+00  0.2777E+02
     -7.976  0.1821E-01  0.2777E+02
     -7.964  0.1215E+01  0.2778E+02
     -7.951  0.9230E+01  0.2790E+02
     -7.939  0.1265E+02  0.2806E+02
     -7.926  0.6732E+01  0.2814E+02
     -7.914  0.5571E+01  0.2821E+02
     -7.901  0.5544E+01  0.2828E+02
     -7.889  0.6152E+01  0.2836E+02
     -7.876  0.5746E+01  0.2843E+02
     -7.864  0.1129E+02  0.2857E+02
     -7.851  0.9718E+01  0.2869E+02
     -7.839  0.5154E+01  0.2876E+02
     -7.826  0.5532E+01  0.2882E+02
     -7.814  0.6233E+01  0.2890E+02
     -7.802  0.1178E+02  0.2905E+02
     -7.789  0.7400E+01  0.2914E+02
     -7.777  0.2713E+01  0.2918E+02
     -7.764  0.2192E+01  0.2920E+02
     -7.752  0.1783E+01  0.2922E+02
     -7.739  0.4322E+01  0.2928E+02
     -7.727  0.3063E+01  0.2932E+02
     -7.714  0.2179E+01  0.2934E+02
     -7.702  0.3620E+01  0.2939E+02
     -7.689  0.1975E+01  0.2941E+02
     -7.677  0.1910E+01  0.2944E+02
     -7.664  0.2522E+01  0.2947E+02
     -7.652  0.5216E+01  0.2953E+02
     -7.639  0.5107E+01  0.2960E+02
     -7.627  0.3798E+01  0.2965E+02
     -7.614  0.1345E+01  0.2966E+02
     -7.602  0.4272E+01  0.2972E+02
     -7.589  0.5257E+01  0.2978E+02
     -7.577  0.3293E+01  0.2982E+02
     -7.565  0.1194E+01  0.2984E+02
     -7.552  0.2895E+01  0.2987E+02
     -7.540  0.5821E+01  0.2995E+02
     -7.527  0.5593E+01  0.3002E+02
     -7.515  0.3755E+01  0.3006E+02
     -7.502  0.2341E+01  0.3009E+02
     -7.490  0.5194E+01  0.3016E+02
     -7.477  0.7298E+01  0.3025E+02
     -7.465  0.2133E+01  0.3027E+02
     -7.452  0.1963E+01  0.3030E+02
     -7.440  0.1103E+01  0.3031E+02
     -7.427  0.1702E+01  0.3033E+02
     -7.415  0.2539E+01  0.3036E+02
     -7.402  0.4623E+01  0.3042E+02
     -7.390  0.2795E+01  0.3046E+02
     -7.377  0.2715E+00  0.3046E+02
     -7.365  0.2035E-01  0.3046E+02
     -7.352  0.7177E+00  0.3047E+02
     -7.340  0.3818E+01  0.3052E+02
     -7.328  0.3715E+01  0.3056E+02
     -7.315  0.4985E+01  0.3063E+02
     -7.303  0.6848E+01  0.3071E+02
     -7.290  0.7019E+01  0.3080E+02
     -7.278  0.5603E+01  0.3087E+02
     -7.265  0.4805E+01  0.3093E+02
     -7.253  0.5968E+01  0.3100E+02
     -7.240  0.2871E+01  0.3104E+02
     -7.228  0.2190E+01  0.3107E+02
     -7.215  0.1603E+01  0.3109E+02
     -7.203  0.9140E+00  0.3110E+02
     -7.190  0.4338E+01  0.3115E+02
     -7.178  0.7402E+01  0.3124E+02
     -7.165  0.1788E+01  0.3127E+02
     -7.153  0.5627E-01  0.3127E+02
     -7.140  0.5900E+00  0.3127E+02
     -7.128  0.2884E+01  0.3131E+02
     -7.115  0.4923E+01  0.3137E+02
     -7.103  0.5308E+01  0.3144E+02
     -7.091  0.6162E+01  0.3152E+02
     -7.078  0.7073E+01  0.3160E+02
     -7.066  0.4567E+01  0.3166E+02
     -7.053  0.3724E+01  0.3171E+02
     -7.041  0.3059E+01  0.3174E+02
     -7.028  0.2469E+01  0.3178E+02
     -7.016  0.5592E+01  0.3185E+02
     -7.003  0.4633E+01  0.3190E+02
     -6.991  0.3492E+01  0.3195E+02
     -6.978  0.2933E+01  0.3198E+02
     -6.966  0.3120E+01  0.3202E+02
     -6.953  0.2238E+01  0.3205E+02
     -6.941  0.6053E+01  0.3213E+02
     -6.928  0.4592E+01  0.3218E+02
     -6.916  0.1674E+01  0.3220E+02
     -6.903  0.4746E+01  0.3226E+02
     -6.891  0.6559E+01  0.3234E+02
     -6.878  0.6148E+01  0.3242E+02
     -6.866  0.5664E+01  0.3249E+02
     -6.854  0.5936E+01  0.3257E+02
     -6.841  0.8644E+01  0.3267E+02
     -6.829  0.5633E+01  0.3274E+02
     -6.816  0.4553E+01  0.3280E+02
     -6.804  0.3819E+01  0.3285E+02
     -6.791  0.1751E+01  0.3287E+02
     -6.779  0.2059E+01  0.3290E+02
     -6.766  0.4829E+01  0.3296E+02
     -6.754  0.5477E+01  0.3302E+02
     -6.741  0.4218E+01  0.3308E+02
     -6.729  0.8365E+01  0.3318E+02
     -6.716  0.7977E+01  0.3328E+02
     -6.704  0.3158E+01  0.3332E+02
     -6.691  0.6096E+01  0.3340E+02
     -6.679  0.7756E+01  0.3349E+02
     -6.666  0.3734E+01  0.3354E+02
     -6.654  0.1099E+01  0.3355E+02
     -6.641  0.3950E+01  0.3360E+02
     -6.629  0.5233E+01  0.3367E+02
     -6.617  0.3883E+01  0.3372E+02
     -6.604  0.2602E+01  0.3375E+02
     -6.592  0.6603E+01  0.3383E+02
     -6.579  0.8933E+01  0.3394E+02
     -6.567  0.4744E+01  0.3400E+02
     -6.554  0.4909E+01  0.3406E+02
     -6.542  0.2695E+01  0.3410E+02
     -6.529  0.3164E+01  0.3414E+02
     -6.517  0.5240E+01  0.3420E+02
     -6.504  0.5745E+01  0.3427E+02
     -6.492  0.6225E+01  0.3435E+02
     -6.479  0.2804E+01  0.3439E+02
     -6.467  0.4332E+01  0.3444E+02
     -6.454  0.4411E+01  0.3450E+02
     -6.442  0.5286E+01  0.3456E+02
     -6.429  0.9201E+01  0.3468E+02
     -6.417  0.7745E+01  0.3477E+02
     -6.404  0.3663E+01  0.3482E+02
     -6.392  0.3861E+01  0.3487E+02
     -6.379  0.3300E+01  0.3491E+02
     -6.367  0.2857E+01  0.3494E+02
     -6.355  0.3194E+01  0.3498E+02
     -6.342  0.3320E+01  0.3502E+02
     -6.330  0.4715E+01  0.3508E+02
     -6.317  0.4982E+01  0.3515E+02
     -6.305  0.4664E+01  0.3520E+02
     -6.292  0.6441E+01  0.3528E+02
     -6.280  0.5083E+01  0.3535E+02
     -6.267  0.6600E+01  0.3543E+02
     -6.255  0.3176E+01  0.3547E+02
     -6.242  0.2403E+01  0.3550E+02
     -6.230  0.6812E+01  0.3558E+02
     -6.217  0.1042E+02  0.3571E+02
     -6.205  0.8602E+01  0.3582E+02
     -6.192  0.7648E+01  0.3592E+02
     -6.180  0.5519E+01  0.3599E+02
     -6.167  0.2118E+01  0.3601E+02
     -6.155  0.3071E+01  0.3605E+02
     -6.142  0.4555E+01  0.3611E+02
     -6.130  0.5479E+01  0.3618E+02
     -6.118  0.5381E+01  0.3624E+02
     -6.105  0.9371E+01  0.3636E+02
     -6.093  0.9894E+01  0.3648E+02
     -6.080  0.6219E+01  0.3656E+02
     -6.068  0.3474E+01  0.3660E+02
     -6.055  0.4356E+01  0.3666E+02
     -6.043  0.4958E+01  0.3672E+02
     -6.030  0.4929E+01  0.3678E+02
     -6.018  0.7524E+01  0.3688E+02
     -6.005  0.6694E+01  0.3696E+02
     -5.993  0.1184E+02  0.3711E+02
     -5.980  0.1408E+02  0.3728E+02
     -5.968  0.7404E+01  0.3737E+02
     -5.955  0.8123E+01  0.3748E+02
     -5.943  0.8319E+01  0.3758E+02
     -5.930  0.8830E+01  0.3769E+02
     -5.918  0.7880E+01  0.3779E+02
     -5.905  0.6028E+01  0.3786E+02
     -5.893  0.5726E+01  0.3793E+02
     -5.881  0.3005E+01  0.3797E+02
     -5.868  0.4558E+01  0.3803E+02
     -5.856  0.1169E+02  0.3818E+02
     -5.843  0.1190E+02  0.3832E+02
     -5.831  0.6634E+01  0.3841E+02
     -5.818  0.3449E+01  0.3845E+02
     -5.806  0.5508E+01  0.3852E+02
     -5.793  0.4022E+01  0.3857E+02
     -5.781  0.1051E+01  0.3858E+02
     -5.768  0.2095E+01  0.3861E+02
     -5.756  0.5911E+01  0.3868E+02
     -5.743  0.3934E+01  0.3873E+02
     -5.731  0.4908E+01  0.3879E+02
     -5.718  0.6722E+01  0.3888E+02
     -5.706  0.3691E+01  0.3892E+02
     -5.693  0.1737E+01  0.3894E+02
     -5.681  0.3020E+01  0.3898E+02
     -5.668  0.5550E+01  0.3905E+02
     -5.656  0.8000E+01  0.3915E+02
     -5.644  0.6538E+01  0.3923E+02
     -5.631  0.6815E+01  0.3932E+02
     -5.619  0.7548E+01  0.3941E+02
     -5.606  0.6410E+01  0.3949E+02
     -5.594  0.4943E+01  0.3955E+02
     -5.581  0.2789E+01  0.3959E+02
     -5.569  0.4508E+01  0.3964E+02
     -5.556  0.5222E+01  0.3971E+02
     -5.544  0.7147E+01  0.3980E+02
     -5.531  0.1261E+02  0.3995E+02
     -5.519  0.1248E+02  0.4011E+02
     -5.506  0.1055E+02  0.4024E+02
     -5.494  0.4131E+01  0.4029E+02
     -5.481  0.5824E+01  0.4037E+02
     -5.469  0.6257E+01  0.4044E+02
     -5.456  0.7930E+01  0.4054E+02
     -5.444  0.9728E+01  0.4066E+02
     -5.431  0.7762E+01  0.4076E+02
     -5.419  0.8987E+01  0.4087E+02
     -5.407  0.1069E+02  0.4101E+02
     -5.394  0.5904E+01  0.4108E+02
     -5.382  0.6774E+01  0.4116E+02
     -5.369  0.1452E+02  0.4135E+02
     -5.357  0.1917E+02  0.4159E+02
     -5.344  0.1762E+02  0.4181E+02
     -5.332  0.9890E+01  0.4193E+02
     -5.319  0.2245E+01  0.4196E+02
     -5.307  0.1064E+01  0.4197E+02
     -5.294  0.8223E+00  0.4198E+02
     -5.282  0.3189E+01  0.4202E+02
     -5.269  0.7392E+01  0.4211E+02
     -5.257  0.5433E+01  0.4218E+02
     -5.244  0.2059E+01  0.4221E+02
     -5.232  0.5901E+01  0.4228E+02
     -5.219  0.6556E+01  0.4236E+02
     -5.207  0.3386E+01  0.4240E+02
     -5.194  0.1007E+01  0.4242E+02
     -5.182  0.3128E+00  0.4242E+02
     -5.170  0.1945E+01  0.4244E+02
     -5.157  0.4019E+01  0.4249E+02
     -5.145  0.6959E+01  0.4258E+02
     -5.132  0.2354E+01  0.4261E+02
     -5.120  0.1009E+01  0.4262E+02
     -5.107  0.6713E+00  0.4263E+02
     -5.095  0.2525E+01  0.4266E+02
     -5.082  0.4112E+01  0.4271E+02
     -5.070  0.5099E+01  0.4278E+02
     -5.057  0.1899E+01  0.4280E+02
     -5.045  0.3780E+01  0.4285E+02
     -5.032  0.8952E+01  0.4296E+02
     -5.020  0.2860E+01  0.4300E+02
     -5.007  0.2211E+01  0.4302E+02
     -4.995  0.2747E+01  0.4306E+02
     -4.982  0.2499E+01  0.4309E+02
     -4.970  0.1447E+01  0.4311E+02
     -4.957  0.1410E+01  0.4312E+02
     -4.945  0.3419E+01  0.4317E+02
     -4.933  0.1406E+01  0.4318E+02
     -4.920  0.1554E+01  0.4320E+02
     -4.908  0.4209E+01  0.4326E+02
     -4.895  0.3407E+01  0.4330E+02
     -4.883  0.2393E+01  0.4333E+02
     -4.870  0.3355E+01  0.4337E+02
     -4.858  0.1999E+01  0.4340E+02
     -4.845  0.1772E+01  0.4342E+02
     -4.833  0.3780E+01  0.4346E+02
     -4.820  0.3288E+01  0.4351E+02
     -4.808  0.5917E+00  0.4351E+02
     -4.795  0.2068E+01  0.4354E+02
     -4.783  0.7220E+01  0.4363E+02
     -4.770  0.4351E+01  0.4368E+02
     -4.758  0.2560E+01  0.4372E+02
     -4.745  0.3233E+01  0.4376E+02
     -4.733  0.1766E+01  0.4378E+02
     -4.720  0.2289E+01  0.4381E+02
     -4.708  0.1961E+01  0.4383E+02
     -4.696  0.3070E+01  0.4387E+02
     -4.683  0.3769E+01  0.4392E+02
     -4.671  0.3157E+01  0.4396E+02
     -4.658  0.1242E+01  0.4397E+02
     -4.646  0.6578E+00  0.4398E+02
     -4.633  0.8298E+00  0.4399E+02
     -4.621  0.4021E+00  0.4399E+02
     -4.608  0.1815E+01  0.4402E+02
     -4.596  0.4710E+01  0.4408E+02
     -4.583  0.5695E+01  0.4415E+02
     -4.571  0.1496E+01  0.4417E+02
     -4.558  0.3189E+01  0.4421E+02
     -4.546  0.5200E+01  0.4427E+02
     -4.533  0.2975E+01  0.4431E+02
     -4.521  0.4553E+01  0.4436E+02
     -4.508  0.4350E+01  0.4442E+02
     -4.496  0.3599E+01  0.4446E+02
     -4.483  0.7385E+00  0.4447E+02
     -4.471  0.1529E+01  0.4449E+02
     -4.459  0.1310E+01  0.4451E+02
     -4.446  0.5549E+00  0.4451E+02
     -4.434  0.3390E+01  0.4456E+02
     -4.421  0.4667E+01  0.4462E+02
     -4.409  0.2115E+01  0.4464E+02
     -4.396  0.7825E+00  0.4465E+02
     -4.384  0.2932E+01  0.4469E+02
     -4.371  0.8097E+01  0.4479E+02
     -4.359  0.4816E+01  0.4485E+02
     -4.346  0.1605E+01  0.4487E+02
     -4.334  0.7792E+01  0.4497E+02
     -4.321  0.1040E+02  0.4510E+02
     -4.309  0.5078E+01  0.4516E+02
     -4.296  0.5060E+01  0.4522E+02
     -4.284  0.7454E+01  0.4532E+02
     -4.271  0.6823E+01  0.4540E+02
     -4.259  0.6141E+01  0.4548E+02
     -4.246  0.4915E+01  0.4554E+02
     -4.234  0.5466E+01  0.4561E+02
     -4.222  0.3601E+01  0.4565E+02
     -4.209  0.5408E+01  0.4572E+02
     -4.197  0.6763E+01  0.4580E+02
     -4.184  0.7317E+01  0.4589E+02
     -4.172  0.4791E+01  0.4595E+02
     -4.159  0.5598E+01  0.4602E+02
     -4.147  0.4495E+01  0.4608E+02
     -4.134  0.6337E+01  0.4616E+02
     -4.122  0.8036E+01  0.4626E+02
     -4.109  0.5704E+01  0.4633E+02
     -4.097  0.5513E+01  0.4640E+02
     -4.084  0.7581E+01  0.4649E+02
     -4.072  0.8248E+01  0.4660E+02
     -4.059  0.4546E+01  0.4665E+02
     -4.047  0.2127E+01  0.4668E+02
     -4.034  0.5216E+01  0.4675E+02
     -4.022  0.3788E+01  0.4679E+02
     -4.009  0.3319E+01  0.4683E+02
     -3.997  0.5055E+01  0.4690E+02
     -3.985  0.5381E+01  0.4696E+02
     -3.972  0.3331E+01  0.4701E+02
     -3.960  0.3223E+01  0.4705E+02
     -3.947  0.6559E+01  0.4713E+02
     -3.935  0.7398E+01  0.4722E+02
     -3.922  0.5278E+01  0.4729E+02
     -3.910  0.6371E+01  0.4737E+02
     -3.897  0.5377E+01  0.4743E+02
     -3.885  0.6546E+01  0.4751E+02
     -3.872  0.5518E+01  0.4758E+02
     -3.860  0.4032E+01  0.4763E+02
     -3.847  0.2630E+01  0.4767E+02
     -3.835  0.7297E+01  0.4776E+02
     -3.822  0.7062E+01  0.4784E+02
     -3.810  0.2477E+01  0.4788E+02
     -3.797  0.5134E+01  0.4794E+02
     -3.785  0.5429E+01  0.4801E+02
     -3.772  0.3201E+01  0.4805E+02
     -3.760  0.2534E+01  0.4808E+02
     -3.748  0.4761E+01  0.4814E+02
     -3.735  0.7510E+01  0.4823E+02
     -3.723  0.7254E+01  0.4832E+02
     -3.710  0.4968E+01  0.4838E+02
     -3.698  0.4597E+01  0.4844E+02
     -3.685  0.4089E+01  0.4849E+02
     -3.673  0.4242E+01  0.4855E+02
     -3.660  0.1660E+01  0.4857E+02
     -3.648  0.1982E+01  0.4859E+02
     -3.635  0.1897E+01  0.4861E+02
     -3.623  0.4303E+01  0.4867E+02
     -3.610  0.5823E+01  0.4874E+02
     -3.598  0.7148E+01  0.4883E+02
     -3.585  0.7139E+01  0.4892E+02
     -3.573  0.9447E+01  0.4904E+02
     -3.560  0.5533E+01  0.4911E+02
     -3.548  0.6154E+01  0.4918E+02
     -3.535  0.4770E+01  0.4924E+02
     -3.523  0.3032E+01  0.4928E+02
     -3.511  0.4327E+01  0.4933E+02
     -3.498  0.4802E+01  0.4939E+02
     -3.486  0.3495E+01  0.4944E+02
     -3.473  0.5683E+01  0.4951E+02
     -3.461  0.6577E+01  0.4959E+02
     -3.448  0.6107E+01  0.4967E+02
     -3.436  0.2178E+01  0.4969E+02
     -3.423  0.2938E+01  0.4973E+02
     -3.411  0.5210E+01  0.4980E+02
     -3.398  0.3597E+01  0.4984E+02
     -3.386  0.2785E+01  0.4988E+02
     -3.373  0.2101E+01  0.4990E+02
     -3.361  0.4232E+01  0.4995E+02
     -3.348  0.4167E+01  0.5001E+02
     -3.336  0.5286E+01  0.5007E+02
     -3.323  0.4026E+01  0.5012E+02
     -3.311  0.3061E+01  0.5016E+02
     -3.298  0.3111E+01  0.5020E+02
     -3.286  0.3183E+01  0.5024E+02
     -3.273  0.2089E+01  0.5027E+02
     -3.261  0.2175E+01  0.5029E+02
     -3.249  0.2332E+01  0.5032E+02
     -3.236  0.5939E+01  0.5040E+02
     -3.224  0.2848E+01  0.5043E+02
     -3.211  0.2613E+01  0.5046E+02
     -3.199  0.5309E+01  0.5053E+02
     -3.186  0.6305E+01  0.5061E+02
     -3.174  0.7903E+01  0.5071E+02
     -3.161  0.4498E+01  0.5076E+02
     -3.149  0.2166E+01  0.5079E+02
     -3.136  0.1892E+01  0.5081E+02
     -3.124  0.1703E+01  0.5084E+02
     -3.111  0.1365E+01  0.5085E+02
     -3.099  0.2875E+01  0.5089E+02
     -3.086  0.5083E+01  0.5095E+02
     -3.074  0.2357E+01  0.5098E+02
     -3.061  0.1095E+01  0.5099E+02
     -3.049  0.3343E+01  0.5104E+02
     -3.036  0.5284E+01  0.5110E+02
     -3.024  0.6285E+01  0.5118E+02
     -3.012  0.4139E+01  0.5123E+02
     -2.999  0.3138E+01  0.5127E+02
     -2.987  0.2922E+01  0.5131E+02
     -2.974  0.2644E+01  0.5134E+02
     -2.962  0.1916E+01  0.5136E+02
     -2.949  0.2495E+01  0.5140E+02
     -2.937  0.2214E+01  0.5142E+02
     -2.924  0.2944E+01  0.5146E+02
     -2.912  0.2208E+01  0.5149E+02
     -2.899  0.3759E+01  0.5153E+02
     -2.887  0.4513E+01  0.5159E+02
     -2.874  0.3442E+01  0.5163E+02
     -2.862  0.5344E+01  0.5170E+02
     -2.849  0.5028E+01  0.5176E+02
     -2.837  0.2592E+01  0.5180E+02
     -2.824  0.3277E+01  0.5184E+02
     -2.812  0.3537E+01  0.5188E+02
     -2.799  0.5317E+01  0.5195E+02
     -2.787  0.4239E+01  0.5200E+02
     -2.775  0.2304E+01  0.5203E+02
     -2.762  0.4575E+01  0.5209E+02
     -2.750  0.6413E+01  0.5217E+02
     -2.737  0.4746E+01  0.5222E+02
     -2.725  0.7227E+01  0.5231E+02
     -2.712  0.6194E+01  0.5239E+02
     -2.700  0.8843E+00  0.5240E+02
     -2.687  0.6608E-01  0.5240E+02
     -2.675  0.1074E+01  0.5242E+02
     -2.662  0.1789E+01  0.5244E+02
     -2.650  0.1007E+01  0.5245E+02
     -2.637  0.6484E+00  0.5246E+02
     -2.625  0.4480E-01  0.5246E+02
     -2.612  0.1486E-02  0.5246E+02
     -2.600  0.1798E+00  0.5246E+02
     -2.587  0.2021E+01  0.5249E+02
     -2.575  0.4451E+01  0.5254E+02
     -2.562  0.3356E+01  0.5259E+02
     -2.550  0.6084E+01  0.5266E+02
     -2.538  0.5212E+01  0.5273E+02
     -2.525  0.4191E+01  0.5278E+02
     -2.513  0.7402E+01  0.5287E+02
     -2.500  0.9174E+01  0.5299E+02
     -2.488  0.5089E+01  0.5305E+02
     -2.475  0.1344E+01  0.5307E+02
     -2.463  0.6962E+00  0.5307E+02
     -2.450  0.5780E-01  0.5308E+02
     -2.438  0.3243E+00  0.5308E+02
     -2.425  0.1798E+01  0.5310E+02
     -2.413  0.9322E+00  0.5311E+02
     -2.400  0.8571E+00  0.5312E+02
     -2.388  0.4633E+01  0.5318E+02
     -2.375  0.5930E+01  0.5326E+02
     -2.363  0.2455E+01  0.5329E+02
     -2.350  0.1615E+01  0.5331E+02
     -2.338  0.1570E+01  0.5333E+02
     -2.325  0.1800E+01  0.5335E+02
     -2.313  0.2299E+01  0.5338E+02
     -2.301  0.2763E+01  0.5341E+02
     -2.288  0.1872E+01  0.5344E+02
     -2.276  0.1535E+01  0.5345E+02
     -2.263  0.3039E+01  0.5349E+02
     -2.251  0.2515E+01  0.5352E+02
     -2.238  0.1910E+01  0.5355E+02
     -2.226  0.9462E+00  0.5356E+02
     -2.213  0.2214E+01  0.5359E+02
     -2.201  0.3884E+01  0.5364E+02
     -2.188  0.1235E+01  0.5365E+02
     -2.176  0.4718E-01  0.5365E+02
     -2.163  0.1563E-03  0.5365E+02
     -2.151  0.3312E-07  0.5365E+02
     -2.138  0.3809E-12  0.5365E+02
     -2.126  0.1154E-08  0.5365E+02
     -2.113  0.1746E-04  0.5365E+02
     -2.101  0.1379E-01  0.5365E+02
     -2.088  0.7044E+00  0.5366E+02
     -2.076  0.4403E+01  0.5372E+02
     -2.064  0.9504E+01  0.5383E+02
     -2.051  0.7755E+01  0.5393E+02
     -2.039  0.3771E+01  0.5398E+02
     -2.026  0.3694E+01  0.5402E+02
     -2.014  0.3184E+01  0.5406E+02
     -2.001  0.8127E+00  0.5407E+02
     -1.989  0.5498E+00  0.5408E+02
     -1.976  0.2583E+01  0.5411E+02
     -1.964  0.3582E+01  0.5416E+02
     -1.951  0.4352E+01  0.5421E+02
     -1.939  0.2667E+01  0.5424E+02
     -1.926  0.1548E+01  0.5426E+02
     -1.914  0.4095E+01  0.5432E+02
     -1.901  0.3048E+01  0.5435E+02
     -1.889  0.3144E+01  0.5439E+02
     -1.876  0.3471E+01  0.5444E+02
     -1.864  0.5374E+01  0.5450E+02
     -1.851  0.3022E+01  0.5454E+02
     -1.839  0.9683E+00  0.5455E+02
     -1.827  0.1110E+00  0.5455E+02
     -1.814  0.9832E+00  0.5457E+02
     -1.802  0.5490E+01  0.5463E+02
     -1.789  0.3925E+01  0.5468E+02
     -1.777  0.2604E+01  0.5472E+02
     -1.764  0.2396E+01  0.5475E+02
     -1.752  0.1909E+01  0.5477E+02
     -1.739  0.3160E+01  0.5481E+02
     -1.727  0.3585E+01  0.5485E+02
     -1.714  0.4766E+01  0.5491E+02
     -1.702  0.2083E+01  0.5494E+02
     -1.689  0.2227E+01  0.5497E+02
     -1.677  0.2073E+01  0.5499E+02
     -1.664  0.1879E+00  0.5500E+02
     -1.652  0.1229E-02  0.5500E+02
     -1.639  0.7610E-02  0.5500E+02
     -1.627  0.5139E+00  0.5500E+02
     -1.614  0.2887E+01  0.5504E+02
     -1.602  0.2305E+01  0.5507E+02
     -1.590  0.1131E+01  0.5508E+02
     -1.577  0.1930E+01  0.5510E+02
     -1.565  0.1095E+01  0.5512E+02
     -1.552  0.1952E+01  0.5514E+02
     -1.540  0.1610E+01  0.5516E+02
     -1.527  0.1732E+01  0.5518E+02
     -1.515  0.6914E+00  0.5519E+02
     -1.502  0.2352E+01  0.5522E+02
     -1.490  0.3238E+01  0.5526E+02
     -1.477  0.2358E+01  0.5529E+02
     -1.465  0.1468E+01  0.5531E+02
     -1.452  0.8107E+00  0.5532E+02
     -1.440  0.8527E-01  0.5532E+02
     -1.427  0.2735E+00  0.5533E+02
     -1.415  0.2550E+01  0.5536E+02
     -1.402  0.3192E+01  0.5540E+02
     -1.390  0.1924E+01  0.5542E+02
     -1.377  0.1833E+01  0.5544E+02
     -1.365  0.2950E+01  0.5548E+02
     -1.353  0.1095E+01  0.5549E+02
     -1.340  0.3348E-01  0.5549E+02
     -1.328  0.5977E-03  0.5549E+02
     -1.315  0.1067E+00  0.5550E+02
     -1.303  0.1370E+01  0.5551E+02
     -1.290  0.1468E+01  0.5553E+02
     -1.278  0.1357E+00  0.5553E+02
     -1.265  0.3341E+00  0.5554E+02
     -1.253  0.2973E+01  0.5557E+02
     -1.240  0.3068E+01  0.5561E+02
     -1.228  0.2120E+01  0.5564E+02
     -1.215  0.7163E+00  0.5565E+02
     -1.203  0.2108E-01  0.5565E+02
     -1.190  0.3772E-04  0.5565E+02
     -1.178  0.3083E-03  0.5565E+02
     -1.165  0.7752E-01  0.5565E+02
     -1.153  0.1227E+01  0.5566E+02
     -1.140  0.1606E+01  0.5568E+02
     -1.128  0.5578E+00  0.5569E+02
     -1.116  0.1194E+01  0.5571E+02
     -1.103  0.1852E+01  0.5573E+02
     -1.091  0.2243E+01  0.5576E+02
     -1.078  0.6542E+00  0.5577E+02
     -1.066  0.1621E+01  0.5579E+02
     -1.053  0.1459E+01  0.5580E+02
     -1.041  0.1623E+01  0.5582E+02
     -1.028  0.1175E+01  0.5584E+02
     -1.016  0.1361E+00  0.5584E+02
     -1.003  0.5873E+00  0.5585E+02
     -0.991  0.9209E+00  0.5586E+02
     -0.978  0.9209E+00  0.5587E+02
     -0.966  0.5813E+00  0.5588E+02
     -0.953  0.4186E-01  0.5588E+02
     -0.941  0.3130E+00  0.5588E+02
     -0.928  0.9614E+00  0.5589E+02
     -0.916  0.5795E+00  0.5590E+02
     -0.903  0.9573E+00  0.5591E+02
     -0.891  0.2618E+00  0.5592E+02
     -0.879  0.1659E+00  0.5592E+02
     -0.866  0.2949E+00  0.5592E+02
     -0.854  0.4944E-01  0.5592E+02
     -0.841  0.2455E-01  0.5592E+02
     -0.829  0.7649E+00  0.5593E+02
     -0.816  0.1878E+01  0.5596E+02
     -0.804  0.4056E+00  0.5596E+02
     -0.791  0.6269E-02  0.5596E+02
     -0.779  0.5474E-05  0.5596E+02
     -0.766  0.1570E-06  0.5596E+02
     -0.754  0.4606E-03  0.5596E+02
     -0.741  0.7283E-01  0.5596E+02
     -0.729  0.7547E+00  0.5597E+02
     -0.716  0.6627E+00  0.5598E+02
     -0.704  0.4828E-01  0.5598E+02
     -0.691  0.2243E-03  0.5598E+02
     -0.679  0.5529E-07  0.5598E+02
     -0.666  0.6667E-12  0.5598E+02
     -0.654  0.0000E+00  0.5598E+02
     -0.642  0.0000E+00  0.5598E+02
     -0.629  0.0000E+00  0.5598E+02
     -0.617  0.0000E+00  0.5598E+02
     -0.604  0.0000E+00  0.5598E+02
     -0.592  0.0000E+00  0.5598E+02
     -0.579  0.0000E+00  0.5598E+02
     -0.567  0.2532E-13  0.5598E+02
     -0.554  0.4452E-08  0.5598E+02
     -0.542  0.3786E-04  0.5598E+02
     -0.529  0.1665E-01  0.5598E+02
     -0.517  0.4408E+00  0.5599E+02
     -0.504  0.9137E+00  0.5600E+02
     -0.492  0.1659E+00  0.5600E+02
     -0.479  0.2112E-02  0.5600E+02
     -0.467  0.1502E-05  0.5600E+02
     -0.454  0.5344E-10  0.5600E+02
     -0.442  0.0000E+00  0.5600E+02
     -0.429  0.0000E+00  0.5600E+02
     -0.417  0.0000E+00  0.5600E+02
     -0.405  0.0000E+00  0.5600E+02
     -0.392  0.0000E+00  0.5600E+02
     -0.380  0.0000E+00  0.5600E+02
     -0.367  0.0000E+00  0.5600E+02
     -0.355  0.0000E+00  0.5600E+02
     -0.342  0.0000E+00  0.5600E+02
     -0.330  0.0000E+00  0.5600E+02
     -0.317  0.0000E+00  0.5600E+02
     -0.305  0.0000E+00  0.5600E+02
     -0.292  0.0000E+00  0.5600E+02
     -0.280  0.0000E+00  0.5600E+02
     -0.267  0.0000E+00  0.5600E+02
     -0.255  0.0000E+00  0.5600E+02
     -0.242  0.0000E+00  0.5600E+02
     -0.230  0.0000E+00  0.5600E+02
     -0.217  0.0000E+00  0.5600E+02
     -0.205  0.0000E+00  0.5600E+02
     -0.192  0.1424E-15  0.5600E+02
     -0.180  0.7635E-10  0.5600E+02
     -0.167  0.1956E-05  0.5600E+02
     -0.155  0.2513E-02  0.5600E+02
     -0.143  0.1813E+00  0.5600E+02
     -0.130  0.9258E+00  0.5601E+02
     -0.118  0.4151E+00  0.5602E+02
     -0.105  0.1446E-01  0.5602E+02
     -0.093  0.3016E-04  0.5602E+02
     -0.080  0.3244E-08  0.5602E+02
     -0.068  0.1692E-13  0.5602E+02
     -0.055  0.0000E+00  0.5602E+02
     -0.043  0.0000E+00  0.5602E+02
     -0.030  0.0000E+00  0.5602E+02
     -0.018  0.0000E+00  0.5602E+02
     -0.005  0.0000E+00  0.5602E+02
      0.007  0.0000E+00  0.5602E+02
      0.020  0.2848E-16  0.5602E+02
      0.032  0.2543E-10  0.5602E+02
      0.045  0.8639E-06  0.5602E+02
      0.057  0.1462E-02  0.5602E+02
      0.070  0.1368E+00  0.5602E+02
      0.082  0.8828E+00  0.5603E+02
      0.094  0.4959E+00  0.5604E+02
      0.107  0.2216E-01  0.5604E+02
      0.119  0.6044E-04  0.5604E+02
      0.132  0.2883E-05  0.5604E+02
      0.144  0.4096E-02  0.5604E+02
      0.157  0.3262E+00  0.5604E+02
      0.169  0.1822E+01  0.5607E+02
      0.182  0.8918E+00  0.5608E+02
      0.194  0.3427E-01  0.5608E+02
      0.207  0.7951E-04  0.5608E+02
      0.219  0.9560E-08  0.5608E+02
      0.232  0.5577E-13  0.5608E+02
      0.244  0.0000E+00  0.5608E+02
      0.257  0.0000E+00  0.5608E+02
      0.269  0.0000E+00  0.5608E+02
      0.282  0.0000E+00  0.5608E+02
      0.294  0.0000E+00  0.5608E+02
      0.307  0.1977E-12  0.5608E+02
      0.319  0.2164E-07  0.5608E+02
      0.331  0.1157E-03  0.5608E+02
      0.344  0.3263E-01  0.5608E+02
      0.356  0.5755E+00  0.5608E+02
      0.369  0.8274E+00  0.5609E+02
      0.381  0.1032E+00  0.5610E+02
      0.394  0.9947E-01  0.5610E+02
      0.406  0.1334E+01  0.5611E+02
      0.419  0.1501E+01  0.5613E+02
      0.431  0.1431E+00  0.5613E+02
      0.444  0.1006E-02  0.5613E+02
      0.456  0.4210E-01  0.5613E+02
      0.469  0.9699E+00  0.5615E+02
      0.481  0.1778E+01  0.5617E+02
      0.494  0.2851E+00  0.5617E+02
      0.506  0.3176E-02  0.5617E+02
      0.519  0.1971E-05  0.5617E+02
      0.531  0.6133E-10  0.5617E+02
      0.544  0.3736E-08  0.5617E+02
      0.556  0.4011E-04  0.5617E+02
      0.568  0.2227E-01  0.5617E+02
      0.581  0.7378E+00  0.5618E+02
      0.593  0.1884E+01  0.5621E+02
      0.606  0.4268E+00  0.5621E+02
      0.618  0.7017E-02  0.5621E+02
      0.631  0.6613E-05  0.5621E+02
      0.643  0.3176E-09  0.5621E+02
      0.656  0.7405E-15  0.5621E+02
      0.668  0.0000E+00  0.5621E+02
      0.681  0.4385E-11  0.5621E+02
      0.693  0.2409E-06  0.5621E+02
      0.706  0.6901E-03  0.5621E+02
      0.718  0.1160E+00  0.5621E+02
      0.731  0.1553E+01  0.5623E+02
      0.743  0.3737E+01  0.5628E+02
      0.756  0.3157E+01  0.5632E+02
      0.768  0.2081E+01  0.5634E+02
      0.781  0.2753E+01  0.5638E+02
      0.793  0.1052E+01  0.5639E+02
      0.805  0.1763E+01  0.5641E+02
      0.818  0.4385E+01  0.5647E+02
      0.830  0.5578E+01  0.5654E+02
      0.843  0.2519E+01  0.5657E+02
      0.855  0.2174E+01  0.5660E+02
      0.868  0.2057E+01  0.5662E+02
      0.880  0.2392E+01  0.5665E+02
      0.893  0.2842E+01  0.5669E+02
      0.905  0.3688E+01  0.5673E+02
      0.918  0.1293E+01  0.5675E+02
      0.930  0.1662E+01  0.5677E+02
      0.943  0.2554E+01  0.5680E+02
      0.955  0.1254E+01  0.5682E+02
      0.968  0.3203E+01  0.5686E+02
      0.980  0.4163E+01  0.5691E+02
      0.993  0.9593E+01  0.5703E+02
      1.005  0.9431E+01  0.5715E+02
      1.018  0.4569E+01  0.5720E+02
      1.030  0.4126E+01  0.5726E+02
      1.042  0.4484E+01  0.5731E+02
      1.055  0.9238E+01  0.5743E+02
      1.067  0.1247E+02  0.5758E+02
      1.080  0.8549E+01  0.5769E+02
      1.092  0.4063E+01  0.5774E+02
      1.105  0.2601E+01  0.5777E+02
      1.117  0.1943E+01  0.5780E+02
      1.130  0.2396E+01  0.5783E+02
      1.142  0.1656E+01  0.5785E+02
      1.155  0.7770E+00  0.5786E+02
      1.167  0.1588E+01  0.5788E+02
      1.180  0.1043E+01  0.5789E+02
      1.192  0.1758E+01  0.5791E+02
      1.205  0.3031E+01  0.5795E+02
      1.217  0.1958E+01  0.5797E+02
      1.230  0.2154E+01  0.5800E+02
      1.242  0.3854E+01  0.5805E+02
      1.255  0.3604E+01  0.5809E+02
      1.267  0.9810E+00  0.5811E+02
      1.279  0.1567E+01  0.5812E+02
      1.292  0.9020E+00  0.5814E+02
      1.304  0.1759E+00  0.5814E+02
      1.317  0.7268E+00  0.5815E+02
      1.329  0.1253E+01  0.5816E+02
      1.342  0.1499E+01  0.5818E+02
      1.354  0.1981E+01  0.5821E+02
      1.367  0.1972E+01  0.5823E+02
      1.379  0.5109E+00  0.5824E+02
      1.392  0.7528E+00  0.5825E+02
      1.404  0.2292E+01  0.5828E+02
      1.417  0.1576E+01  0.5830E+02
      1.429  0.2665E+01  0.5833E+02
      1.442  0.8971E+01  0.5844E+02
      1.454  0.1109E+02  0.5858E+02
      1.467  0.8105E+01  0.5868E+02
      1.479  0.2783E+01  0.5871E+02
      1.492  0.1947E+00  0.5872E+02
      1.504  0.7231E-01  0.5872E+02
      1.516  0.1391E+01  0.5874E+02
      1.529  0.3458E+01  0.5878E+02
      1.541  0.1197E+01  0.5879E+02
      1.554  0.3604E+00  0.5880E+02
      1.566  0.2052E+01  0.5882E+02
      1.579  0.3138E+01  0.5886E+02
      1.591  0.4750E+01  0.5892E+02
      1.604  0.8650E+01  0.5903E+02
      1.616  0.6578E+01  0.5911E+02
      1.629  0.6084E+01  0.5919E+02
      1.641  0.3610E+01  0.5923E+02
      1.654  0.1750E+01  0.5925E+02
      1.666  0.1543E+01  0.5927E+02
      1.679  0.3139E+01  0.5931E+02
      1.691  0.2832E+01  0.5935E+02
      1.704  0.3089E+01  0.5939E+02
      1.716  0.2044E+01  0.5941E+02
      1.729  0.5082E+00  0.5942E+02
      1.741  0.1634E+01  0.5944E+02
      1.753  0.3754E+01  0.5949E+02
      1.766  0.2878E+01  0.5952E+02
      1.778  0.9686E+00  0.5953E+02
      1.791  0.2077E+01  0.5956E+02
      1.803  0.3737E+01  0.5961E+02
      1.816  0.2957E+01  0.5964E+02
      1.828  0.3763E+01  0.5969E+02
      1.841  0.3966E+01  0.5974E+02
      1.853  0.2353E+01  0.5977E+02
      1.866  0.2530E+01  0.5980E+02
      1.878  0.1646E+01  0.5982E+02
      1.891  0.1200E+01  0.5984E+02
      1.903  0.2258E+01  0.5986E+02
      1.916  0.4674E+01  0.5992E+02
      1.928  0.3978E+01  0.5997E+02
      1.941  0.4002E+01  0.6002E+02
      1.953  0.2384E+01  0.6005E+02
      1.966  0.2948E+01  0.6009E+02
      1.978  0.1311E+01  0.6010E+02
      1.990  0.1623E+01  0.6012E+02
      2.003  0.2620E+01  0.6016E+02
      2.015  0.1196E+01  0.6017E+02
      2.028  0.1036E+01  0.6019E+02
      2.040  0.1887E+01  0.6021E+02
      2.053  0.2287E+01  0.6024E+02
      2.065  0.3388E+01  0.6028E+02
      2.078  0.1628E+01  0.6030E+02
      2.090  0.1165E+01  0.6031E+02
      2.103  0.1308E+01  0.6033E+02
      2.115  0.3797E+01  0.6038E+02
      2.128  0.2527E+01  0.6041E+02
      2.140  0.7947E+00  0.6042E+02
      2.153  0.1834E+01  0.6044E+02
      2.165  0.1453E+01  0.6046E+02
      2.178  0.1969E+01  0.6049E+02
      2.190  0.2002E+01  0.6051E+02
      2.203  0.2340E+01  0.6054E+02
      2.215  0.3788E+01  0.6059E+02
      2.227  0.3300E+01  0.6063E+02
      2.240  0.3640E+01  0.6067E+02
      2.252  0.4112E+01  0.6072E+02
      2.265  0.4551E+01  0.6078E+02
      2.277  0.3139E+01  0.6082E+02
      2.290  0.2160E+01  0.6085E+02
      2.302  0.1984E+01  0.6087E+02
      2.315  0.1674E+01  0.6089E+02
      2.327  0.2335E+00  0.6090E+02
      2.340  0.4986E-02  0.6090E+02
      2.352  0.1781E+00  0.6090E+02
      2.365  0.1017E+01  0.6091E+02
      2.377  0.1308E+01  0.6093E+02
      2.390  0.2413E+01  0.6096E+02
      2.402  0.4739E+01  0.6102E+02
      2.415  0.2395E+01  0.6105E+02
      2.427  0.2843E+00  0.6105E+02
      2.440  0.8639E+00  0.6106E+02
      2.452  0.2658E+01  0.6109E+02
      2.464  0.1219E+01  0.6111E+02
      2.477  0.1991E+01  0.6113E+02
      2.489  0.4324E+01  0.6119E+02
      2.502  0.4922E+01  0.6125E+02
      2.514  0.4157E+01  0.6130E+02
      2.527  0.1586E+01  0.6132E+02
      2.539  0.1148E+01  0.6134E+02
      2.552  0.1215E+01  0.6135E+02
      2.564  0.8327E+00  0.6136E+02
      2.577  0.1161E+01  0.6138E+02
      2.589  0.1187E+01  0.6139E+02
      2.602  0.8268E+00  0.6140E+02
      2.614  0.1750E+01  0.6142E+02
      2.627  0.2437E+01  0.6145E+02
      2.639  0.2584E+01  0.6148E+02
      2.652  0.1528E+01  0.6150E+02
      2.664  0.1624E+01  0.6152E+02
      2.677  0.4539E+01  0.6158E+02
      2.689  0.4834E+01  0.6164E+02
      2.702  0.2772E+01  0.6168E+02
      2.714  0.1411E+01  0.6169E+02
      2.726  0.3197E+01  0.6173E+02
      2.739  0.2873E+01  0.6177E+02
      2.751  0.7926E+00  0.6178E+02
      2.764  0.3268E-01  0.6178E+02
      2.776  0.4463E-03  0.6178E+02
      2.789  0.8107E-01  0.6178E+02
      2.801  0.1236E+01  0.6180E+02
      2.814  0.1598E+01  0.6182E+02
      2.826  0.8028E+00  0.6183E+02
      2.839  0.1995E+01  0.6185E+02
      2.851  0.1300E+01  0.6187E+02
      2.864  0.8684E+00  0.6188E+02
      2.876  0.1032E+01  0.6189E+02
      2.889  0.1579E+01  0.6191E+02
      2.901  0.4871E+01  0.6197E+02
      2.914  0.4340E+01  0.6202E+02
      2.926  0.5657E+01  0.6210E+02
      2.939  0.4585E+01  0.6215E+02
      2.951  0.3343E+01  0.6219E+02
      2.963  0.8186E+00  0.6220E+02
      2.976  0.5032E+00  0.6221E+02
      2.988  0.1911E+01  0.6223E+02
      3.001  0.9944E+00  0.6225E+02
      3.013  0.2814E+01  0.6228E+02
      3.026  0.4776E+01  0.6234E+02
      3.038  0.4031E+01  0.6239E+02
      3.051  0.2006E+01  0.6242E+02
      3.063  0.1112E+01  0.6243E+02
      3.076  0.4734E+00  0.6244E+02
      3.088  0.1339E+01  0.6245E+02
      3.101  0.2499E+01  0.6248E+02
      3.113  0.2044E+01  0.6251E+02
      3.126  0.2801E+01  0.6255E+02
      3.138  0.4810E+01  0.6261E+02
      3.151  0.4975E+01  0.6267E+02
      3.163  0.6079E+01  0.6274E+02
      3.176  0.5019E+01  0.6281E+02
      3.188  0.3293E+01  0.6285E+02
      3.200  0.1042E+01  0.6286E+02
      3.213  0.1620E+01  0.6288E+02
      3.225  0.2783E+01  0.6291E+02
      3.238  0.2532E+01  0.6295E+02
      3.250  0.2952E+01  0.6298E+02
      3.263  0.7044E+00  0.6299E+02
      3.275  0.4246E+00  0.6300E+02
      3.288  0.2361E+01  0.6303E+02
      3.300  0.2987E+01  0.6306E+02
      3.313  0.3404E+01  0.6311E+02
      3.325  0.1556E+01  0.6313E+02
      3.338  0.8771E+00  0.6314E+02
      3.350  0.2651E+01  0.6317E+02
      3.363  0.3723E+01  0.6322E+02
      3.375  0.2766E+01  0.6325E+02
      3.388  0.2185E+01  0.6328E+02
      3.400  0.2299E+01  0.6331E+02
      3.413  0.3275E+01  0.6335E+02
      3.425  0.8370E+00  0.6336E+02
      3.437  0.2533E+01  0.6339E+02
      3.450  0.7167E+01  0.6348E+02
      3.462  0.4531E+01  0.6354E+02
      3.475  0.2087E+01  0.6356E+02
      3.487  0.2985E+01  0.6360E+02
      3.500  0.3733E+01  0.6365E+02
      3.512  0.4074E+01  0.6370E+02
      3.525  0.4427E+01  0.6375E+02
      3.537  0.4006E+01  0.6380E+02
      3.550  0.5023E+01  0.6386E+02
      3.562  0.4275E+01  0.6392E+02
      3.575  0.1528E+01  0.6394E+02
      3.587  0.2428E+01  0.6397E+02
      3.600  0.3003E+01  0.6400E+02
      3.612  0.2504E+01  0.6404E+02
      3.625  0.3955E+01  0.6408E+02
      3.637  0.4356E+01  0.6414E+02
      3.650  0.4267E+01  0.6419E+02
      3.662  0.4977E+01  0.6425E+02
      3.674  0.4925E+01  0.6432E+02
      3.687  0.2623E+01  0.6435E+02
      3.699  0.3350E+01  0.6439E+02
      3.712  0.7613E+01  0.6449E+02
      3.724  0.7485E+01  0.6458E+02
      3.737  0.6680E+01  0.6466E+02
      3.749  0.5107E+01  0.6473E+02
      3.762  0.8000E+01  0.6483E+02
      3.774  0.5452E+01  0.6489E+02
      3.787  0.1725E+01  0.6491E+02
      3.799  0.5801E+01  0.6499E+02
      3.812  0.7932E+01  0.6509E+02
      3.824  0.7270E+01  0.6518E+02
      3.837  0.7951E+01  0.6528E+02
      3.849  0.7692E+01  0.6537E+02
      3.862  0.6000E+01  0.6545E+02
      3.874  0.6006E+01  0.6552E+02
      3.887  0.7114E+01  0.6561E+02
      3.899  0.1067E+02  0.6574E+02
      3.911  0.9043E+01  0.6586E+02
      3.924  0.4699E+01  0.6592E+02
      3.936  0.7380E+01  0.6601E+02
      3.949  0.1111E+02  0.6615E+02
      3.961  0.8133E+01  0.6625E+02
      3.974  0.6952E+01  0.6633E+02
      3.986  0.6256E+01  0.6641E+02
      3.999  0.7075E+01  0.6650E+02
      4.011  0.4732E+01  0.6656E+02
      4.024  0.1601E+01  0.6658E+02
      4.036  0.3171E+01  0.6662E+02
      4.049  0.6599E+01  0.6670E+02
      4.061  0.8226E+01  0.6680E+02
      4.074  0.5275E+01  0.6687E+02
      4.086  0.5896E+01  0.6694E+02
      4.099  0.6526E+01  0.6702E+02
      4.111  0.6004E+01  0.6710E+02
      4.124  0.5434E+01  0.6717E+02
      4.136  0.4349E+01  0.6722E+02
      4.148  0.6223E+01  0.6730E+02
      4.161  0.7138E+01  0.6739E+02
      4.173  0.6363E+01  0.6747E+02
      4.186  0.3085E+01  0.6751E+02
      4.198  0.6176E+01  0.6758E+02
      4.211  0.9782E+01  0.6770E+02
      4.223  0.1060E+02  0.6784E+02
      4.236  0.6952E+01  0.6792E+02
      4.248  0.3503E+01  0.6797E+02
      4.261  0.4906E+01  0.6803E+02
      4.273  0.5223E+01  0.6809E+02
      4.286  0.5903E+01  0.6817E+02
      4.298  0.6037E+01  0.6824E+02
      4.311  0.5603E+01  0.6831E+02
      4.323  0.5371E+01  0.6838E+02
      4.336  0.2985E+01  0.6842E+02
      4.348  0.7728E+01  0.6851E+02
      4.361  0.6515E+01  0.6859E+02
      4.373  0.4930E+01  0.6866E+02
      4.385  0.7405E+01  0.6875E+02
      4.398  0.7457E+01  0.6884E+02
      4.410  0.8334E+01  0.6895E+02
      4.423  0.1051E+02  0.6908E+02
      4.435  0.8562E+01  0.6918E+02
      4.448  0.2347E+01  0.6921E+02
      4.460  0.4687E+01  0.6927E+02
      4.473  0.3817E+01  0.6932E+02
      4.485  0.1394E+01  0.6934E+02
      4.498  0.1250E+01  0.6935E+02
      4.510  0.2009E+01  0.6938E+02
      4.523  0.5540E+01  0.6945E+02
      4.535  0.9023E+01  0.6956E+02
      4.548  0.7808E+01  0.6966E+02
      4.560  0.7468E+01  0.6975E+02
      4.573  0.9000E+01  0.6986E+02
      4.585  0.9168E+01  0.6998E+02
      4.598  0.7769E+01  0.7007E+02
      4.610  0.5256E+01  0.7014E+02
      4.622  0.5962E+01  0.7021E+02
      4.635  0.4286E+01  0.7027E+02
      4.647  0.4026E+01  0.7032E+02
      4.660  0.6603E+01  0.7040E+02
      4.672  0.8353E+01  0.7050E+02
      4.685  0.5029E+01  0.7057E+02
      4.697  0.3726E+01  0.7061E+02
      4.710  0.4406E+01  0.7067E+02
      4.722  0.3223E+01  0.7071E+02
      4.735  0.5067E+01  0.7077E+02
      4.747  0.5812E+01  0.7084E+02
      4.760  0.2328E+01  0.7087E+02
      4.772  0.4377E+01  0.7093E+02
      4.785  0.1069E+02  0.7106E+02
      4.797  0.8582E+01  0.7117E+02
      4.810  0.4664E+01  0.7123E+02
      4.822  0.7013E+01  0.7131E+02
      4.835  0.9578E+01  0.7143E+02
      4.847  0.7566E+01  0.7153E+02
      4.859  0.6303E+01  0.7160E+02
      4.872  0.6125E+01  0.7168E+02
      4.884  0.9257E+01  0.7180E+02
      4.897  0.4664E+01  0.7186E+02
      4.909  0.2917E+01  0.7189E+02
      4.922  0.5245E+01  0.7196E+02
      4.934  0.1160E+02  0.7210E+02
      4.947  0.7158E+01  0.7219E+02
      4.959  0.4009E+01  0.7224E+02
      4.972  0.5039E+01  0.7230E+02
      4.984  0.4563E+01  0.7236E+02
      4.997  0.5829E+01  0.7243E+02
      5.009  0.7781E+01  0.7253E+02
      5.022  0.6258E+01  0.7261E+02
      5.034  0.5372E+01  0.7268E+02
      5.047  0.3819E+01  0.7272E+02
      5.059  0.5235E+01  0.7279E+02
      5.072  0.9484E+01  0.7291E+02
      5.084  0.9037E+01  0.7302E+02
      5.096  0.6575E+01  0.7310E+02
      5.109  0.6294E+01  0.7318E+02
      5.121  0.8048E+01  0.7328E+02
      5.134  0.6149E+01  0.7336E+02
      5.146  0.6843E+01  0.7344E+02
      5.159  0.9080E+01  0.7356E+02
      5.171  0.5660E+01  0.7363E+02
      5.184  0.5264E+01  0.7369E+02
      5.196  0.8763E+01  0.7380E+02
      5.209  0.9460E+01  0.7392E+02
      5.221  0.8204E+01  0.7402E+02
      5.234  0.7608E+01  0.7412E+02
      5.246  0.9505E+01  0.7424E+02
      5.259  0.7371E+01  0.7433E+02
      5.271  0.4509E+01  0.7438E+02
      5.284  0.1791E+01  0.7441E+02
      5.296  0.3251E+01  0.7445E+02
      5.309  0.2453E+01  0.7448E+02
      5.321  0.4682E+01  0.7454E+02
      5.333  0.5903E+01  0.7461E+02
      5.346  0.6918E+01  0.7470E+02
      5.358  0.7845E+01  0.7479E+02
      5.371  0.3844E+01  0.7484E+02
      5.383  0.2305E+01  0.7487E+02
      5.396  0.1868E+01  0.7489E+02
      5.408  0.4572E+01  0.7495E+02
      5.421  0.6619E+01  0.7503E+02
      5.433  0.3781E+01  0.7508E+02
      5.446  0.2305E+01  0.7511E+02
      5.458  0.2032E+01  0.7513E+02
      5.471  0.5343E+01  0.7520E+02
      5.483  0.9326E+01  0.7532E+02
      5.496  0.5202E+01  0.7538E+02
      5.508  0.5435E+01  0.7545E+02
      5.521  0.5817E+01  0.7552E+02
      5.533  0.3342E+01  0.7556E+02
      5.546  0.3052E+01  0.7560E+02
      5.558  0.6148E+01  0.7568E+02
      5.570  0.8599E+01  0.7579E+02
      5.583  0.9273E+01  0.7590E+02
      5.595  0.1053E+02  0.7603E+02
      5.608  0.1137E+02  0.7617E+02
      5.620  0.7111E+01  0.7626E+02
      5.633  0.6683E+01  0.7635E+02
      5.645  0.1121E+02  0.7649E+02
      5.658  0.8033E+01  0.7659E+02
      5.670  0.9480E+01  0.7670E+02
      5.683  0.5523E+01  0.7677E+02
      5.695  0.3072E+01  0.7681E+02
      5.708  0.4539E+01  0.7687E+02
      5.720  0.7327E+01  0.7696E+02
      5.733  0.5645E+01  0.7703E+02
      5.745  0.5291E+01  0.7710E+02
      5.758  0.6739E+01  0.7718E+02
      5.770  0.6003E+01  0.7726E+02
      5.783  0.4967E+01  0.7732E+02
      5.795  0.2312E+01  0.7735E+02
      5.808  0.1548E+01  0.7737E+02
      5.820  0.2191E+01  0.7739E+02
      5.832  0.2083E+01  0.7742E+02
      5.845  0.1732E+01  0.7744E+02
      5.857  0.6470E+01  0.7752E+02
      5.870  0.1196E+02  0.7767E+02
      5.882  0.1277E+02  0.7783E+02
      5.895  0.8696E+01  0.7794E+02
      5.907  0.4407E+01  0.7799E+02
      5.920  0.4139E+01  0.7804E+02
      5.932  0.3182E+01  0.7808E+02
      5.945  0.3511E+01  0.7813E+02
      5.957  0.4429E+01  0.7818E+02
      5.970  0.5726E+01  0.7826E+02
      5.982  0.5497E+01  0.7832E+02
      5.995  0.3427E+01  0.7837E+02
      6.007  0.2718E+01  0.7840E+02
      6.020  0.4523E+01  0.7846E+02
      6.032  0.6387E+01  0.7854E+02
      6.045  0.5588E+01  0.7861E+02
      6.057  0.4511E+01  0.7866E+02
      6.069  0.6415E+01  0.7874E+02
      6.082  0.7372E+01  0.7883E+02
      6.094  0.7142E+01  0.7892E+02
      6.107  0.4097E+01  0.7897E+02
      6.119  0.4635E+01  0.7903E+02
      6.132  0.4294E+01  0.7909E+02
      6.144  0.6083E+01  0.7916E+02
      6.157  0.6111E+01  0.7924E+02
      6.169  0.5846E+01  0.7931E+02
      6.182  0.4842E+01  0.7937E+02
      6.194  0.3562E+01  0.7942E+02
      6.207  0.4811E+01  0.7948E+02
      6.219  0.5198E+01  0.7954E+02
      6.232  0.3980E+01  0.7959E+02
      6.244  0.4563E+01  0.7965E+02
      6.257  0.5664E+01  0.7972E+02
      6.269  0.4184E+01  0.7977E+02
      6.282  0.5425E+01  0.7984E+02
      6.294  0.3229E+01  0.7988E+02
      6.306  0.4002E+01  0.7993E+02
      6.319  0.4416E+01  0.7998E+02
      6.331  0.2464E+01  0.8001E+02
      6.344  0.2303E+01  0.8004E+02
      6.356  0.2196E+01  0.8007E+02
      6.369  0.4985E+01  0.8013E+02
      6.381  0.1036E+02  0.8026E+02
      6.394  0.8275E+01  0.8036E+02
      6.406  0.1712E+01  0.8039E+02
      6.419  0.3088E+01  0.8042E+02
      6.431  0.4833E+01  0.8048E+02
      6.444  0.4864E+01  0.8055E+02
      6.456  0.6257E+01  0.8062E+02
      6.469  0.6689E+01  0.8071E+02
      6.481  0.7920E+01  0.8081E+02
      6.494  0.4950E+01  0.8087E+02
      6.506  0.7098E+01  0.8096E+02
      6.519  0.7987E+01  0.8106E+02
      6.531  0.6855E+01  0.8114E+02
      6.543  0.6698E+01  0.8122E+02
      6.556  0.8045E+01  0.8132E+02
      6.568  0.6240E+01  0.8140E+02
      6.581  0.6813E+01  0.8149E+02
      6.593  0.1034E+02  0.8162E+02
      6.606  0.1232E+02  0.8177E+02
      6.618  0.1098E+02  0.8191E+02
      6.631  0.5378E+01  0.8197E+02
      6.643  0.4486E+01  0.8203E+02
      6.656  0.2529E+01  0.8206E+02
      6.668  0.2600E+01  0.8209E+02
      6.681  0.5104E+01  0.8216E+02
      6.693  0.9136E+01  0.8227E+02
      6.706  0.6242E+01  0.8235E+02
      6.718  0.6471E+01  0.8243E+02
      6.731  0.1006E+02  0.8256E+02
      6.743  0.8353E+01  0.8266E+02
      6.756  0.4238E+01  0.8271E+02
      6.768  0.6073E+01  0.8279E+02
      6.780  0.5955E+01  0.8286E+02
      6.793  0.4497E+01  0.8292E+02
      6.805  0.8412E+01  0.8302E+02
      6.818  0.1149E+02  0.8317E+02
      6.830  0.7433E+01  0.8326E+02
      6.843  0.3781E+01  0.8331E+02
      6.855  0.6637E+01  0.8339E+02
      6.868  0.1180E+02  0.8354E+02
      6.880  0.9139E+01  0.8365E+02
      6.893  0.7527E+01  0.8375E+02
      6.905  0.9009E+01  0.8386E+02
      6.918  0.1100E+02  0.8399E+02
      6.930  0.9531E+01  0.8411E+02
      6.943  0.8893E+01  0.8422E+02
      6.955  0.6856E+01  0.8431E+02
      6.968  0.7588E+01  0.8440E+02
      6.980  0.9897E+01  0.8453E+02
      6.993  0.8119E+01  0.8463E+02
      7.005  0.5990E+01  0.8470E+02
      7.017  0.4579E+01  0.8476E+02
      7.030  0.6629E+01  0.8484E+02
      7.042  0.1715E+02  0.8506E+02
      7.055  0.1254E+02  0.8521E+02
      7.067  0.4333E+01  0.8527E+02
      7.080  0.1765E+01  0.8529E+02
      7.092  0.1588E+01  0.8531E+02
      7.105  0.4739E+01  0.8537E+02
      7.117  0.6068E+01  0.8545E+02
      7.130  0.7369E+01  0.8554E+02
      7.142  0.6634E+01  0.8562E+02
      7.155  0.4683E+01  0.8568E+02
      7.167  0.4175E+01  0.8573E+02
      7.180  0.2228E+01  0.8576E+02
      7.192  0.5933E+01  0.8583E+02
      7.205  0.7850E+01  0.8593E+02
      7.217  0.6812E+01  0.8601E+02
      7.230  0.5174E+01  0.8608E+02
      7.242  0.4846E+01  0.8614E+02
      7.254  0.3280E+01  0.8618E+02
      7.267  0.3033E+01  0.8622E+02
      7.279  0.3977E+01  0.8627E+02
      7.292  0.7961E+01  0.8637E+02
      7.304  0.8546E+01  0.8647E+02
      7.317  0.5788E+01  0.8655E+02
      7.329  0.4478E+01  0.8660E+02
      7.342  0.1857E+01  0.8663E+02
      7.354  0.1943E+01  0.8665E+02
      7.367  0.9800E+00  0.8666E+02
      7.379  0.1197E+00  0.8666E+02
      7.392  0.1086E+01  0.8668E+02
      7.404  0.1910E+01  0.8670E+02
      7.417  0.3211E+01  0.8674E+02
      7.429  0.4370E+01  0.8680E+02
      7.442  0.4968E+01  0.8686E+02
      7.454  0.5303E+01  0.8692E+02
      7.467  0.6546E+01  0.8701E+02
      7.479  0.1276E+02  0.8716E+02
      7.491  0.8504E+01  0.8727E+02
      7.504  0.3116E+01  0.8731E+02
      7.516  0.5487E+01  0.8738E+02
      7.529  0.6870E+01  0.8746E+02
      7.541  0.5409E+01  0.8753E+02
      7.554  0.4549E+01  0.8759E+02
      7.566  0.4272E+01  0.8764E+02
      7.579  0.2490E+01  0.8767E+02
      7.591  0.4288E+01  0.8773E+02
      7.604  0.9479E+01  0.8784E+02
      7.616  0.9136E+01  0.8796E+02
      7.629  0.5912E+01  0.8803E+02
      7.641  0.8864E+01  0.8814E+02
      7.654  0.1121E+02  0.8828E+02
      7.666  0.7770E+01  0.8838E+02
      7.679  0.9103E+01  0.8849E+02
      7.691  0.8548E+01  0.8860E+02
      7.704  0.7857E+01  0.8870E+02
      7.716  0.7247E+01  0.8879E+02
      7.728  0.6735E+01  0.8887E+02
      7.741  0.6718E+01  0.8896E+02
      7.753  0.9422E+01  0.8907E+02
      7.766  0.7949E+01  0.8917E+02
      7.778  0.6335E+01  0.8925E+02
      7.791  0.4505E+01  0.8931E+02
      7.803  0.8368E+01  0.8941E+02
      7.816  0.1107E+02  0.8955E+02
      7.828  0.1193E+02  0.8970E+02
      7.841  0.1473E+02  0.8988E+02
      7.853  0.9114E+01  0.9000E+02
      7.866  0.3956E+01  0.9004E+02
      7.878  0.8865E+01  0.9016E+02
      7.891  0.9114E+01  0.9027E+02
      7.903  0.1155E+02  0.9041E+02
      7.916  0.8597E+01  0.9052E+02
      7.928  0.7209E+01  0.9061E+02
      7.941  0.4093E+01  0.9066E+02
      7.953  0.3432E+01  0.9070E+02
      7.965  0.3603E+01  0.9075E+02
      7.978  0.4435E+01  0.9080E+02
      7.990  0.6705E+01  0.9089E+02
      8.003  0.8536E+01  0.9099E+02
      8.015  0.6827E+01  0.9108E+02
      8.028  0.4830E+01  0.9114E+02
      8.040  0.1366E+02  0.9131E+02
      8.053  0.1781E+02  0.9153E+02
      8.065  0.1304E+02  0.9170E+02
      8.078  0.7510E+01  0.9179E+02
      8.090  0.7767E+01  0.9189E+02
      8.103  0.1035E+02  0.9202E+02
      8.115  0.9900E+01  0.9214E+02
      8.128  0.7607E+01  0.9223E+02
      8.140  0.6489E+01  0.9231E+02
      8.153  0.7078E+01  0.9240E+02
      8.165  0.5192E+01  0.9247E+02
      8.178  0.5819E+01  0.9254E+02
      8.190  0.1060E+02  0.9267E+02
      8.202  0.9708E+01  0.9279E+02
      8.215  0.4363E+01  0.9285E+02
      8.227  0.5584E+01  0.9292E+02
      8.240  0.7158E+01  0.9301E+02
      8.252  0.5085E+01  0.9307E+02
      8.265  0.5608E+01  0.9314E+02
      8.277  0.5848E+01  0.9321E+02
      8.290  0.9921E+01  0.9334E+02
      8.302  0.1292E+02  0.9350E+02
      8.315  0.1383E+02  0.9367E+02
      8.327  0.9516E+01  0.9379E+02
      8.340  0.6762E+01  0.9387E+02
      8.352  0.1042E+02  0.9400E+02
      8.365  0.9340E+01  0.9412E+02
      8.377  0.7618E+01  0.9422E+02
      8.390  0.1221E+02  0.9437E+02
      8.402  0.1502E+02  0.9455E+02
      8.415  0.1142E+02  0.9470E+02
      8.427  0.9222E+01  0.9481E+02
      8.439  0.1260E+02  0.9497E+02
      8.452  0.1138E+02  0.9511E+02
      8.464  0.1449E+02  0.9529E+02
      8.477  0.1304E+02  0.9545E+02
      8.489  0.1051E+02  0.9559E+02
      8.502  0.1346E+02  0.9575E+02
      8.514  0.1679E+02  0.9596E+02
      8.527  0.1134E+02  0.9610E+02
      8.539  0.7918E+01  0.9620E+02
      8.552  0.1025E+02  0.9633E+02
      8.564  0.1348E+02  0.9650E+02
      8.577  0.1256E+02  0.9666E+02
      8.589  0.7852E+01  0.9675E+02
      8.602  0.7438E+01  0.9685E+02
      8.614  0.1018E+02  0.9697E+02
      8.627  0.9106E+01  0.9709E+02
      8.639  0.1114E+02  0.9723E+02
      8.652  0.1012E+02  0.9735E+02
      8.664  0.1087E+02  0.9749E+02
      8.676  0.1208E+02  0.9764E+02
      8.689  0.1385E+02  0.9781E+02
      8.701  0.1379E+02  0.9798E+02
      8.714  0.9610E+01  0.9810E+02
      8.726  0.8838E+01  0.9821E+02
      8.739  0.1194E+02  0.9836E+02
      8.751  0.1419E+02  0.9854E+02
      8.764  0.1446E+02  0.9872E+02
      8.776  0.1031E+02  0.9885E+02
      8.789  0.9163E+01  0.9896E+02
      8.801  0.1070E+02  0.9910E+02
      8.814  0.1189E+02  0.9924E+02
      8.826  0.9187E+01  0.9936E+02
      8.839  0.1125E+02  0.9950E+02
      8.851  0.8670E+01  0.9961E+02
      8.864  0.6717E+01  0.9969E+02
      8.876  0.9723E+01  0.9981E+02
      8.889  0.1267E+02  0.9997E+02
      8.901  0.1152E+02  0.1001E+03
      8.914  0.5939E+01  0.1002E+03
      8.926  0.6500E+01  0.1003E+03
      8.938  0.1011E+02  0.1004E+03
      8.951  0.8681E+01  0.1005E+03
      8.963  0.8132E+01  0.1006E+03
      8.976  0.1149E+02  0.1007E+03
      8.988  0.1426E+02  0.1009E+03
      9.001  0.1414E+02  0.1011E+03
      9.013  0.1267E+02  0.1013E+03
      9.026  0.9702E+01  0.1014E+03
      9.038  0.1184E+02  0.1015E+03
      9.051  0.1135E+02  0.1017E+03
      9.063  0.7800E+01  0.1018E+03
      9.076  0.9822E+01  0.1019E+03
      9.088  0.1229E+02  0.1020E+03
      9.101  0.1484E+02  0.1022E+03
      9.113  0.1581E+02  0.1024E+03
      9.126  0.7854E+01  0.1025E+03
      9.138  0.7156E+01  0.1026E+03
      9.151  0.6171E+01  0.1027E+03
      9.163  0.1051E+02  0.1028E+03
      9.175  0.1139E+02  0.1030E+03
      9.188  0.5736E+01  0.1030E+03
      9.200  0.1031E+02  0.1032E+03
      9.213  0.9396E+01  0.1033E+03
      9.225  0.9414E+01  0.1034E+03
      9.238  0.5766E+01  0.1035E+03
      9.250  0.9324E+01  0.1036E+03
      9.263  0.1543E+02  0.1038E+03
      9.275  0.1210E+02  0.1039E+03
      9.288  0.6342E+01  0.1040E+03
      9.300  0.7661E+01  0.1041E+03
      9.313  0.6255E+01  0.1042E+03
      9.325  0.3565E+01  0.1042E+03
      9.338  0.5151E+01  0.1043E+03
      9.350  0.1337E+02  0.1045E+03
      9.363  0.1295E+02  0.1046E+03
      9.375  0.7653E+01  0.1047E+03
      9.388  0.8835E+01  0.1048E+03
      9.400  0.1239E+02  0.1050E+03
      9.412  0.1250E+02  0.1051E+03
      9.425  0.9038E+01  0.1052E+03
      9.437  0.8897E+01  0.1054E+03
      9.450  0.1024E+02  0.1055E+03
      9.462  0.8560E+01  0.1056E+03
      9.475  0.9322E+01  0.1057E+03
      9.487  0.3909E+01  0.1058E+03
      9.500  0.8639E+01  0.1059E+03
      9.512  0.1200E+02  0.1060E+03
      9.525  0.1185E+02  0.1062E+03
      9.537  0.8028E+01  0.1063E+03
      9.550  0.3044E+01  0.1063E+03
      9.562  0.5914E+01  0.1064E+03
      9.575  0.7567E+01  0.1065E+03
      9.587  0.5517E+01  0.1065E+03
      9.600  0.9349E+01  0.1067E+03
      9.612  0.1177E+02  0.1068E+03
      9.625  0.9758E+01  0.1069E+03
      9.637  0.1218E+02  0.1071E+03
      9.649  0.1294E+02  0.1072E+03
      9.662  0.1046E+02  0.1074E+03
      9.674  0.7601E+01  0.1075E+03
      9.687  0.7966E+01  0.1076E+03
      9.699  0.7102E+01  0.1077E+03
      9.712  0.6922E+01  0.1077E+03
      9.724  0.1176E+02  0.1079E+03
      9.737  0.1245E+02  0.1080E+03
      9.749  0.8195E+01  0.1081E+03
      9.762  0.7029E+01  0.1082E+03
      9.774  0.1215E+02  0.1084E+03
      9.787  0.1789E+02  0.1086E+03
      9.799  0.1641E+02  0.1088E+03
      9.812  0.7573E+01  0.1089E+03
      9.824  0.5438E+01  0.1090E+03
      9.837  0.4447E+01  0.1090E+03
      9.849  0.8037E+01  0.1091E+03
      9.862  0.1024E+02  0.1093E+03
      9.874  0.1216E+02  0.1094E+03
      9.886  0.1169E+02  0.1096E+03
      9.899  0.5952E+01  0.1096E+03
      9.911  0.6468E+01  0.1097E+03
      9.924  0.8119E+01  0.1098E+03
      9.936  0.5978E+01  0.1099E+03
      9.949  0.6563E+01  0.1100E+03
      9.961  0.5411E+01  0.1100E+03
      9.974  0.8041E+01  0.1101E+03
      9.986  0.8368E+01  0.1102E+03
      9.999  0.1555E+02  0.1104E+03
     10.011  0.1538E+02  0.1106E+03
     10.024  0.6072E+01  0.1107E+03
     10.036  0.3042E+01  0.1107E+03
     10.049  0.5417E+01  0.1108E+03
     10.061  0.9823E+01  0.1109E+03
     10.074  0.1689E+02  0.1111E+03
     10.086  0.1399E+02  0.1113E+03
     10.099  0.9655E+01  0.1114E+03
     10.111  0.1001E+02  0.1116E+03
     10.123  0.1004E+02  0.1117E+03
     10.136  0.7521E+01  0.1118E+03
     10.148  0.5448E+01  0.1118E+03
     10.161  0.8296E+01  0.1119E+03
     10.173  0.8472E+01  0.1121E+03
     10.186  0.6219E+01  0.1121E+03
     10.198  0.6876E+01  0.1122E+03
     10.211  0.1055E+02  0.1123E+03
     10.223  0.1038E+02  0.1125E+03
     10.236  0.8807E+01  0.1126E+03
     10.248  0.6831E+01  0.1127E+03
     10.261  0.9484E+01  0.1128E+03
     10.273  0.1002E+02  0.1129E+03
     10.286  0.1276E+02  0.1131E+03
     10.298  0.1314E+02  0.1132E+03
     10.311  0.9944E+01  0.1134E+03
     10.323  0.8086E+01  0.1135E+03
     10.336  0.1245E+02  0.1136E+03
     10.348  0.1319E+02  0.1138E+03
     10.360  0.9317E+01  0.1139E+03
     10.373  0.9783E+01  0.1140E+03
     10.385  0.9618E+01  0.1141E+03
     10.398  0.7955E+01  0.1142E+03
     10.410  0.8076E+01  0.1143E+03
     10.423  0.8301E+01  0.1144E+03
     10.435  0.8028E+01  0.1145E+03
     10.448  0.8323E+01  0.1147E+03
     10.460  0.9091E+01  0.1148E+03
     10.473  0.9676E+01  0.1149E+03
     10.485  0.7549E+01  0.1150E+03
     10.498  0.6967E+01  0.1151E+03
     10.510  0.7110E+01  0.1152E+03
     10.523  0.7238E+01  0.1152E+03
     10.535  0.1006E+02  0.1154E+03
     10.548  0.1024E+02  0.1155E+03
     10.560  0.1263E+02  0.1157E+03
     10.573  0.8980E+01  0.1158E+03
     10.585  0.1040E+02  0.1159E+03
     10.597  0.8145E+01  0.1160E+03
     10.610  0.2977E+01  0.1160E+03
     10.622  0.4680E+01  0.1161E+03
     10.635  0.1049E+02  0.1162E+03
     10.647  0.1423E+02  0.1164E+03
     10.660  0.1201E+02  0.1166E+03
     10.672  0.7641E+01  0.1166E+03
     10.685  0.8861E+01  0.1168E+03
     10.697  0.1150E+02  0.1169E+03
     10.710  0.1001E+02  0.1170E+03
     10.722  0.5595E+01  0.1171E+03
     10.735  0.5277E+01  0.1172E+03
     10.747  0.4612E+01  0.1172E+03
     10.760  0.4401E+01  0.1173E+03
     10.772  0.8907E+01  0.1174E+03
     10.785  0.1013E+02  0.1175E+03
     10.797  0.1003E+02  0.1176E+03
     10.810  0.8223E+01  0.1177E+03
     10.822  0.7343E+01  0.1178E+03
     10.834  0.7078E+01  0.1179E+03
     10.847  0.7142E+01  0.1180E+03
     10.859  0.1131E+02  0.1181E+03
     10.872  0.9255E+01  0.1183E+03
     10.884  0.9532E+01  0.1184E+03
     10.897  0.1325E+02  0.1185E+03
     10.909  0.1025E+02  0.1187E+03
     10.922  0.8423E+01  0.1188E+03
     10.934  0.6446E+01  0.1189E+03
     10.947  0.5526E+01  0.1189E+03
     10.959  0.8097E+01  0.1190E+03
     10.972  0.1089E+02  0.1192E+03
     10.984  0.1135E+02  0.1193E+03
     10.997  0.8729E+01  0.1194E+03
     11.009  0.6712E+01  0.1195E+03
     11.022  0.6127E+01  0.1196E+03
     11.034  0.6355E+01  0.1197E+03
     11.047  0.9125E+01  0.1198E+03
     11.059  0.5961E+01  0.1198E+03
     11.071  0.2135E+01  0.1199E+03
     11.084  0.3705E+01  0.1199E+03
     11.096  0.5558E+01  0.1200E+03
     11.109  0.6947E+01  0.1201E+03
     11.121  0.1235E+02  0.1202E+03
     11.134  0.1227E+02  0.1204E+03
     11.146  0.4965E+01  0.1204E+03
     11.159  0.2410E+01  0.1205E+03
     11.171  0.6182E+01  0.1206E+03
     11.184  0.1039E+02  0.1207E+03
     11.196  0.9340E+01  0.1208E+03
     11.209  0.6892E+01  0.1209E+03
     11.221  0.5083E+01  0.1209E+03
     11.234  0.6365E+01  0.1210E+03
     11.246  0.5481E+01  0.1211E+03
     11.259  0.3975E+01  0.1211E+03
     11.271  0.5847E+01  0.1212E+03
     11.284  0.9521E+01  0.1213E+03
     11.296  0.8012E+01  0.1214E+03
     11.308  0.6206E+01  0.1215E+03
     11.321  0.6003E+01  0.1216E+03
     11.333  0.7155E+01  0.1217E+03
     11.346  0.7650E+01  0.1218E+03
     11.358  0.5678E+01  0.1218E+03
     11.371  0.5066E+01  0.1219E+03
     11.383  0.5939E+01  0.1220E+03
     11.396  0.5007E+01  0.1220E+03
     11.408  0.3807E+01  0.1221E+03
     11.421  0.3163E+01  0.1221E+03
     11.433  0.1792E+01  0.1222E+03
     11.446  0.6817E+01  0.1222E+03
     11.458  0.1166E+02  0.1224E+03
     11.471  0.1408E+02  0.1226E+03
     11.483  0.1256E+02  0.1227E+03
     11.496  0.8793E+01  0.1228E+03
     11.508  0.7150E+01  0.1229E+03
     11.521  0.7364E+01  0.1230E+03
     11.533  0.7710E+01  0.1231E+03
     11.545  0.5858E+01  0.1232E+03
     11.558  0.7064E+01  0.1233E+03
     11.570  0.5211E+01  0.1233E+03
     11.583  0.2068E+01  0.1234E+03
     11.595  0.4209E+01  0.1234E+03
     11.608  0.7836E+01  0.1235E+03
     11.620  0.8407E+01  0.1236E+03
     11.633  0.1248E+02  0.1238E+03
     11.645  0.1234E+02  0.1239E+03
     11.658  0.8599E+01  0.1240E+03
     11.670  0.4752E+01  0.1241E+03
     11.683  0.4783E+01  0.1241E+03
     11.695  0.5763E+01  0.1242E+03
     11.708  0.7137E+01  0.1243E+03
     11.720  0.6175E+01  0.1244E+03
     11.733  0.8404E+01  0.1245E+03
     11.745  0.8821E+01  0.1246E+03
     11.758  0.1264E+02  0.1248E+03
     11.770  0.1808E+02  0.1250E+03
     11.782  0.1503E+02  0.1252E+03
     11.795  0.7954E+01  0.1253E+03
     11.807  0.7537E+01  0.1254E+03
     11.820  0.6089E+01  0.1254E+03
     11.832  0.4691E+01  0.1255E+03
     11.845  0.5485E+01  0.1256E+03
     11.857  0.1009E+02  0.1257E+03
     11.870  0.8870E+01  0.1258E+03
     11.882  0.3944E+01  0.1259E+03
     11.895  0.3782E+01  0.1259E+03
     11.907  0.7378E+01  0.1260E+03
     11.920  0.6518E+01  0.1261E+03
     11.932  0.3179E+01  0.1261E+03
     11.945  0.7364E+01  0.1262E+03
     11.957  0.9052E+01  0.1263E+03
     11.970  0.4620E+01  0.1264E+03
     11.982  0.2916E+01  0.1264E+03
     11.995  0.6761E+01  0.1265E+03
     12.007  0.4835E+01  0.1266E+03
     12.020  0.1958E+01  0.1266E+03
     12.032  0.5476E+01  0.1266E+03
     12.044  0.6234E+01  0.1267E+03
     12.057  0.2972E+01  0.1268E+03
     12.069  0.6812E+01  0.1268E+03
     12.082  0.9665E+01  0.1270E+03
     12.094  0.1924E+02  0.1272E+03
     12.107  0.1887E+02  0.1274E+03
     12.119  0.1144E+02  0.1276E+03
     12.132  0.7725E+01  0.1277E+03
     12.144  0.4005E+01  0.1277E+03
     12.157  0.2402E+01  0.1278E+03
     12.169  0.4962E+01  0.1278E+03
     12.182  0.9407E+01  0.1279E+03
     12.194  0.9987E+01  0.1281E+03
     12.207  0.6121E+01  0.1281E+03
     12.219  0.7339E+01  0.1282E+03
     12.232  0.9787E+01  0.1284E+03
     12.244  0.8778E+01  0.1285E+03
     12.257  0.7953E+01  0.1286E+03
     12.269  0.5958E+01  0.1286E+03
     12.281  0.5876E+01  0.1287E+03
     12.294  0.9429E+01  0.1288E+03
     12.306  0.9630E+01  0.1289E+03
     12.319  0.8285E+01  0.1291E+03
     12.331  0.8281E+01  0.1292E+03
     12.344  0.1015E+02  0.1293E+03
     12.356  0.6339E+01  0.1294E+03
     12.369  0.7339E+01  0.1295E+03
     12.381  0.7828E+01  0.1296E+03
     12.394  0.1275E+02  0.1297E+03
     12.406  0.1202E+02  0.1299E+03
     12.419  0.1193E+02  0.1300E+03
     12.431  0.8629E+01  0.1301E+03
     12.444  0.7318E+01  0.1302E+03
     12.456  0.7985E+01  0.1303E+03
     12.469  0.9990E+01  0.1304E+03
     12.481  0.1372E+02  0.1306E+03
     12.494  0.9017E+01  0.1307E+03
     12.506  0.7627E+01  0.1308E+03
     12.518  0.9448E+01  0.1309E+03
     12.531  0.1146E+02  0.1311E+03
     12.543  0.1085E+02  0.1312E+03
     12.556  0.9983E+01  0.1313E+03
     12.568  0.8242E+01  0.1314E+03
     12.581  0.9215E+01  0.1315E+03
     12.593  0.6106E+01  0.1316E+03
     12.606  0.7667E+01  0.1317E+03
     12.618  0.1076E+02  0.1319E+03
     12.631  0.7333E+01  0.1319E+03
     12.643  0.5117E+01  0.1320E+03
     12.656  0.5837E+01  0.1321E+03
     12.668  0.8961E+01  0.1322E+03
     12.681  0.1029E+02  0.1323E+03
     12.693  0.7362E+01  0.1324E+03
     12.706  0.6028E+01  0.1325E+03
     12.718  0.6722E+01  0.1326E+03
     12.731  0.8141E+01  0.1327E+03
     12.743  0.6724E+01  0.1328E+03
     12.755  0.6741E+01  0.1328E+03
     12.768  0.7379E+01  0.1329E+03
     12.780  0.7513E+01  0.1330E+03
     12.793  0.7464E+01  0.1331E+03
     12.805  0.1055E+02  0.1333E+03
     12.818  0.1059E+02  0.1334E+03
     12.830  0.1070E+02  0.1335E+03
     12.843  0.1098E+02  0.1337E+03
     12.855  0.1195E+02  0.1338E+03
     12.868  0.9322E+01  0.1339E+03
     12.880  0.1041E+02  0.1341E+03
     12.893  0.7993E+01  0.1342E+03
     12.905  0.6557E+01  0.1342E+03
     12.918  0.7843E+01  0.1343E+03
     12.930  0.8103E+01  0.1344E+03
     12.943  0.1134E+02  0.1346E+03
     12.955  0.1307E+02  0.1347E+03
     12.968  0.9098E+01  0.1349E+03
     12.980  0.1078E+02  0.1350E+03
     12.992  0.1319E+02  0.1351E+03
     13.005  0.1266E+02  0.1353E+03
     13.017  0.1204E+02  0.1355E+03
     13.030  0.7763E+01  0.1356E+03
     13.042  0.4282E+01  0.1356E+03
     13.055  0.7451E+01  0.1357E+03
     13.067  0.7243E+01  0.1358E+03
     13.080  0.8215E+01  0.1359E+03
     13.092  0.1230E+02  0.1360E+03
     13.105  0.1143E+02  0.1362E+03
     13.117  0.9269E+01  0.1363E+03
     13.130  0.1068E+02  0.1364E+03
     13.142  0.1259E+02  0.1366E+03
     13.155  0.1261E+02  0.1368E+03
     13.167  0.1178E+02  0.1369E+03
     13.180  0.1509E+02  0.1371E+03
     13.192  0.1357E+02  0.1373E+03
     13.205  0.9953E+01  0.1374E+03
     13.217  0.1340E+02  0.1375E+03
     13.229  0.1213E+02  0.1377E+03
     13.242  0.7546E+01  0.1378E+03
     13.254  0.7874E+01  0.1379E+03
     13.267  0.6967E+01  0.1380E+03
     13.279  0.6702E+01  0.1381E+03
     13.292  0.7478E+01  0.1382E+03
     13.304  0.1059E+02  0.1383E+03
     13.317  0.9825E+01  0.1384E+03
     13.329  0.8110E+01  0.1385E+03
     13.342  0.9630E+01  0.1386E+03
     13.354  0.1141E+02  0.1388E+03
     13.367  0.9433E+01  0.1389E+03
     13.379  0.6683E+01  0.1390E+03
     13.392  0.7209E+01  0.1391E+03
     13.404  0.7806E+01  0.1392E+03
     13.417  0.3885E+01  0.1392E+03
     13.429  0.4304E+01  0.1393E+03
     13.442  0.5090E+01  0.1393E+03
     13.454  0.9655E+01  0.1394E+03
     13.466  0.1189E+02  0.1396E+03
     13.479  0.9954E+01  0.1397E+03
     13.491  0.6425E+01  0.1398E+03
     13.504  0.8593E+01  0.1399E+03
     13.516  0.8960E+01  0.1400E+03
     13.529  0.6286E+01  0.1401E+03
     13.541  0.5959E+01  0.1402E+03
     13.554  0.5386E+01  0.1402E+03
     13.566  0.7375E+01  0.1403E+03
     13.579  0.1068E+02  0.1405E+03
     13.591  0.9316E+01  0.1406E+03
     13.604  0.9399E+01  0.1407E+03
     13.616  0.1037E+02  0.1408E+03
     13.629  0.9977E+01  0.1410E+03
     13.641  0.4140E+01  0.1410E+03
     13.654  0.4309E+01  0.1411E+03
     13.666  0.1065E+02  0.1412E+03
     13.679  0.9985E+01  0.1413E+03
     13.691  0.6374E+01  0.1414E+03
     13.703  0.3944E+01  0.1414E+03
     13.716  0.5715E+01  0.1415E+03
     13.728  0.9685E+01  0.1416E+03
     13.741  0.1514E+02  0.1418E+03
     13.753  0.1397E+02  0.1420E+03
     13.766  0.1011E+02  0.1421E+03
     13.778  0.9940E+01  0.1422E+03
     13.791  0.1395E+02  0.1424E+03
     13.803  0.1199E+02  0.1426E+03
     13.816  0.4098E+01  0.1426E+03
     13.828  0.5977E+01  0.1427E+03
     13.841  0.1183E+02  0.1428E+03
     13.853  0.1271E+02  0.1430E+03
     13.866  0.9902E+01  0.1431E+03
     13.878  0.1127E+02  0.1433E+03
     13.891  0.1059E+02  0.1434E+03
     13.903  0.8383E+01  0.1435E+03
     13.916  0.9404E+01  0.1436E+03
     13.928  0.1134E+02  0.1438E+03
     13.940  0.1163E+02  0.1439E+03
     13.953  0.8599E+01  0.1440E+03
     13.965  0.1098E+02  0.1442E+03
     13.978  0.1535E+02  0.1443E+03
     13.990  0.1307E+02  0.1445E+03
     14.003  0.1395E+02  0.1447E+03
     14.015  0.1234E+02  0.1448E+03
     14.028  0.1274E+02  0.1450E+03
     14.040  0.1285E+02  0.1452E+03
     14.053  0.1288E+02  0.1453E+03
     14.065  0.9477E+01  0.1454E+03
     14.078  0.1005E+02  0.1456E+03
     14.090  0.8282E+01  0.1457E+03
     14.103  0.9722E+01  0.1458E+03
     14.115  0.1154E+02  0.1459E+03
     14.128  0.1606E+02  0.1461E+03
     14.140  0.1395E+02  0.1463E+03
     14.153  0.1151E+02  0.1464E+03
     14.165  0.1517E+02  0.1466E+03
     14.177  0.1161E+02  0.1468E+03
     14.190  0.8627E+01  0.1469E+03
     14.202  0.6764E+01  0.1470E+03
     14.215  0.6979E+01  0.1471E+03
     14.227  0.1289E+02  0.1472E+03
     14.240  0.1406E+02  0.1474E+03
     14.252  0.9485E+01  0.1475E+03
     14.265  0.1041E+02  0.1476E+03
     14.277  0.1412E+02  0.1478E+03
     14.290  0.1328E+02  0.1480E+03
     14.302  0.1636E+02  0.1482E+03
     14.315  0.1470E+02  0.1484E+03
     14.327  0.8711E+01  0.1485E+03
     14.340  0.9122E+01  0.1486E+03
     14.352  0.1128E+02  0.1487E+03
     14.365  0.8703E+01  0.1488E+03
     14.377  0.8679E+01  0.1490E+03
     14.390  0.9556E+01  0.1491E+03
     14.402  0.8441E+01  0.1492E+03
     14.414  0.1032E+02  0.1493E+03
     14.427  0.1197E+02  0.1495E+03
     14.439  0.1102E+02  0.1496E+03
     14.452  0.9969E+01  0.1497E+03
     14.464  0.1043E+02  0.1498E+03
     14.477  0.1024E+02  0.1500E+03
     14.489  0.9632E+01  0.1501E+03
     14.502  0.7571E+01  0.1502E+03
     14.514  0.8216E+01  0.1503E+03
     14.527  0.9490E+01  0.1504E+03
     14.539  0.7258E+01  0.1505E+03
     14.552  0.8929E+01  0.1506E+03
     14.564  0.9184E+01  0.1507E+03
     14.577  0.1200E+02  0.1509E+03
     14.589  0.9517E+01  0.1510E+03
     14.602  0.5718E+01  0.1511E+03
     14.614  0.5489E+01  0.1511E+03
     14.627  0.5343E+01  0.1512E+03
     14.639  0.3984E+01  0.1513E+03
     14.651  0.4532E+01  0.1513E+03
     14.664  0.8169E+01  0.1514E+03
     14.676  0.9636E+01  0.1515E+03
     14.689  0.1028E+02  0.1517E+03
     14.701  0.8425E+01  0.1518E+03
     14.714  0.8592E+01  0.1519E+03
     14.726  0.7749E+01  0.1520E+03
     14.739  0.9207E+01  0.1521E+03
     14.751  0.8904E+01  0.1522E+03
     14.764  0.8208E+01  0.1523E+03
     14.776  0.1126E+02  0.1524E+03
     14.789  0.1200E+02  0.1526E+03
     14.801  0.6937E+01  0.1527E+03
     14.814  0.7054E+01  0.1528E+03
     14.826  0.9581E+01  0.1529E+03
     14.839  0.8438E+01  0.1530E+03
     14.851  0.1089E+02  0.1531E+03
     14.864  0.1541E+02  0.1533E+03
     14.876  0.1799E+02  0.1535E+03
     14.888  0.1433E+02  0.1537E+03
     14.901  0.9959E+01  0.1538E+03
     14.913  0.1079E+02  0.1540E+03
     14.926  0.1148E+02  0.1541E+03
     14.938  0.1149E+02  0.1543E+03
     14.951  0.1038E+02  0.1544E+03
     14.963  0.1406E+02  0.1546E+03
     14.976  0.1545E+02  0.1548E+03
     14.988  0.1138E+02  0.1549E+03
     15.001  0.8887E+01  0.1550E+03
     15.013  0.7546E+01  0.1551E+03
     15.026  0.1138E+02  0.1552E+03
     15.038  0.9335E+01  0.1554E+03
     15.051  0.6864E+01  0.1554E+03
     15.063  0.1073E+02  0.1556E+03
     15.076  0.1089E+02  0.1557E+03
     15.088  0.8706E+01  0.1558E+03
     15.101  0.9744E+01  0.1559E+03
     15.113  0.9476E+01  0.1561E+03
     15.126  0.8153E+01  0.1562E+03
     15.138  0.8831E+01  0.1563E+03
     15.150  0.9253E+01  0.1564E+03
     15.163  0.1147E+02  0.1565E+03
     15.175  0.1296E+02  0.1567E+03
     15.188  0.9798E+01  0.1568E+03
     15.200  0.9795E+01  0.1569E+03
     15.213  0.1023E+02  0.1571E+03
     15.225  0.9465E+01  0.1572E+03
     15.238  0.1078E+02  0.1573E+03
     15.250  0.1273E+02  0.1575E+03
     15.263  0.8206E+01  0.1576E+03
     15.275  0.5956E+01  0.1577E+03
     15.288  0.7975E+01  0.1578E+03
     15.300  0.8896E+01  0.1579E+03
     15.313  0.9761E+01  0.1580E+03
     15.325  0.5857E+01  0.1581E+03
     15.338  0.5309E+01  0.1581E+03
     15.350  0.5380E+01  0.1582E+03
     15.363  0.4328E+01  0.1583E+03
     15.375  0.9878E+01  0.1584E+03
     15.387  0.1034E+02  0.1585E+03
     15.400  0.8120E+01  0.1586E+03
     15.412  0.9637E+01  0.1587E+03
     15.425  0.1025E+02  0.1589E+03
     15.437  0.1302E+02  0.1590E+03
     15.450  0.1146E+02  0.1592E+03
     15.462  0.7921E+01  0.1593E+03
     15.475  0.7788E+01  0.1594E+03
     15.487  0.7013E+01  0.1594E+03
     15.500  0.7485E+01  0.1595E+03
     15.512  0.9223E+01  0.1597E+03
     15.525  0.8829E+01  0.1598E+03
     15.537  0.7121E+01  0.1598E+03
     15.550  0.7842E+01  0.1599E+03
     15.562  0.9595E+01  0.1601E+03
     15.575  0.1497E+02  0.1603E+03
     15.587  0.1358E+02  0.1604E+03
     15.600  0.1314E+02  0.1606E+03
     15.612  0.1221E+02  0.1607E+03
     15.624  0.1021E+02  0.1609E+03
     15.637  0.1053E+02  0.1610E+03
     15.649  0.1123E+02  0.1611E+03
     15.662  0.9654E+01  0.1613E+03
     15.674  0.7803E+01  0.1614E+03
     15.687  0.6804E+01  0.1614E+03
     15.699  0.5602E+01  0.1615E+03
     15.712  0.7908E+01  0.1616E+03
     15.724  0.1032E+02  0.1617E+03
     15.737  0.1067E+02  0.1619E+03
     15.749  0.9460E+01  0.1620E+03
     15.762  0.1185E+02  0.1621E+03
     15.774  0.1202E+02  0.1623E+03
     15.787  0.7364E+01  0.1624E+03
     15.799  0.6513E+01  0.1625E+03
     15.812  0.7404E+01  0.1626E+03
     15.824  0.8278E+01  0.1627E+03
     15.837  0.7682E+01  0.1628E+03
     15.849  0.1103E+02  0.1629E+03
     15.861  0.1305E+02  0.1631E+03
     15.874  0.6358E+01  0.1631E+03
     15.886  0.5492E+01  0.1632E+03
     15.899  0.9268E+01  0.1633E+03
     15.911  0.8340E+01  0.1634E+03
     15.924  0.5998E+01  0.1635E+03
     15.936  0.7192E+01  0.1636E+03
     15.949  0.9813E+01  0.1637E+03
     15.961  0.1180E+02  0.1639E+03
     15.974  0.1216E+02  0.1640E+03
     15.986  0.1033E+02  0.1641E+03
     15.999  0.7979E+01  0.1642E+03
     16.011  0.5670E+01  0.1643E+03
     16.024  0.7447E+01  0.1644E+03
     16.036  0.6899E+01  0.1645E+03
     16.049  0.7067E+01  0.1646E+03
     16.061  0.7814E+01  0.1647E+03
     16.074  0.1016E+02  0.1648E+03
     16.086  0.9032E+01  0.1649E+03
     16.098  0.1030E+02  0.1650E+03
     16.111  0.9438E+01  0.1652E+03
     16.123  0.8271E+01  0.1653E+03
     16.136  0.5870E+01  0.1653E+03
     16.148  0.4913E+01  0.1654E+03
     16.161  0.3770E+01  0.1654E+03
     16.173  0.5652E+01  0.1655E+03
     16.186  0.6602E+01  0.1656E+03
     16.198  0.5771E+01  0.1657E+03
     16.211  0.5424E+01  0.1657E+03
     16.223  0.5319E+01  0.1658E+03
     16.236  0.7247E+01  0.1659E+03
     16.248  0.7378E+01  0.1660E+03
     16.261  0.7508E+01  0.1661E+03
     16.273  0.6701E+01  0.1662E+03
     16.286  0.6047E+01  0.1662E+03
     16.298  0.6648E+01  0.1663E+03
     16.311  0.7278E+01  0.1664E+03
     16.323  0.5994E+01  0.1665E+03
     16.335  0.5381E+01  0.1665E+03
     16.348  0.4807E+01  0.1666E+03
     16.360  0.3775E+01  0.1667E+03
     16.373  0.5513E+01  0.1667E+03
     16.385  0.6266E+01  0.1668E+03
     16.398  0.4880E+01  0.1669E+03
     16.410  0.3473E+01  0.1669E+03
     16.423  0.3718E+01  0.1670E+03
     16.435  0.6116E+01  0.1670E+03
     16.448  0.6889E+01  0.1671E+03
     16.460  0.7586E+01  0.1672E+03
     16.473  0.9156E+01  0.1673E+03
     16.485  0.8537E+01  0.1674E+03
     16.498  0.5884E+01  0.1675E+03
     16.510  0.4310E+01  0.1676E+03
     16.523  0.7029E+01  0.1676E+03
     16.535  0.1233E+02  0.1678E+03
     16.548  0.1048E+02  0.1679E+03
     16.560  0.6290E+01  0.1680E+03
     16.572  0.1024E+02  0.1681E+03
     16.585  0.1323E+02  0.1683E+03
     16.597  0.9063E+01  0.1684E+03
     16.610  0.9264E+01  0.1685E+03
     16.622  0.1096E+02  0.1687E+03
     16.635  0.1127E+02  0.1688E+03
     16.647  0.1107E+02  0.1689E+03
     16.660  0.1290E+02  0.1691E+03
     16.672  0.1112E+02  0.1692E+03
     16.685  0.9084E+01  0.1694E+03
     16.697  0.7491E+01  0.1695E+03
     16.710  0.9771E+01  0.1696E+03
     16.722  0.1289E+02  0.1697E+03
     16.735  0.1168E+02  0.1699E+03
     16.747  0.8284E+01  0.1700E+03
     16.760  0.3605E+01  0.1700E+03
     16.772  0.3128E+01  0.1701E+03
     16.785  0.6944E+01  0.1702E+03
     16.797  0.1304E+02  0.1703E+03
     16.809  0.1098E+02  0.1705E+03
     16.822  0.1031E+02  0.1706E+03
     16.834  0.8781E+01  0.1707E+03
     16.847  0.1238E+02  0.1708E+03
     16.859  0.1431E+02  0.1710E+03
     16.872  0.1288E+02  0.1712E+03
     16.884  0.1304E+02  0.1713E+03
     16.897  0.1220E+02  0.1715E+03
     16.909  0.1109E+02  0.1716E+03
     16.922  0.5650E+01  0.1717E+03
     16.934  0.2554E+01  0.1717E+03
     16.947  0.4136E+01  0.1718E+03
     16.959  0.5992E+01  0.1719E+03
     16.972  0.7474E+01  0.1720E+03
     16.984  0.1178E+02  0.1721E+03
     16.997  0.1109E+02  0.1722E+03
     17.009  0.7427E+01  0.1723E+03
     17.022  0.6788E+01  0.1724E+03
     17.034  0.9395E+01  0.1725E+03
     17.046  0.9714E+01  0.1727E+03
     17.059  0.8962E+01  0.1728E+03
     17.071  0.1294E+02  0.1729E+03
     17.084  0.1856E+02  0.1732E+03
     17.096  0.1437E+02  0.1733E+03
     17.109  0.1228E+02  0.1735E+03
     17.121  0.1520E+02  0.1737E+03
     17.134  0.1230E+02  0.1738E+03
     17.146  0.1542E+02  0.1740E+03
     17.159  0.1447E+02  0.1742E+03
     17.171  0.1195E+02  0.1744E+03
     17.184  0.1060E+02  0.1745E+03
     17.196  0.9861E+01  0.1746E+03
     17.209  0.9426E+01  0.1747E+03
     17.221  0.8521E+01  0.1748E+03
     17.234  0.9584E+01  0.1750E+03
     17.246  0.8156E+01  0.1751E+03
     17.259  0.7251E+01  0.1752E+03
     17.271  0.8214E+01  0.1753E+03
     17.283  0.1011E+02  0.1754E+03
     17.296  0.1233E+02  0.1755E+03
     17.308  0.1318E+02  0.1757E+03
     17.321  0.8901E+01  0.1758E+03
     17.333  0.1002E+02  0.1759E+03
     17.346  0.9263E+01  0.1761E+03
     17.358  0.5003E+01  0.1761E+03
     17.371  0.6906E+01  0.1762E+03
     17.383  0.1033E+02  0.1763E+03
     17.396  0.1225E+02  0.1765E+03
     17.408  0.1209E+02  0.1766E+03
     17.421  0.9461E+01  0.1768E+03
     17.433  0.8447E+01  0.1769E+03
     17.446  0.1084E+02  0.1770E+03
     17.458  0.8897E+01  0.1771E+03
     17.471  0.6067E+01  0.1772E+03
     17.483  0.1068E+02  0.1773E+03
     17.496  0.1113E+02  0.1775E+03
     17.508  0.6685E+01  0.1775E+03
     17.520  0.7512E+01  0.1776E+03
     17.533  0.9807E+01  0.1778E+03
     17.545  0.7673E+01  0.1778E+03
     17.558  0.5496E+01  0.1779E+03
     17.570  0.8203E+01  0.1780E+03
     17.583  0.1170E+02  0.1782E+03
     17.595  0.9776E+01  0.1783E+03
     17.608  0.9151E+01  0.1784E+03
     17.620  0.1025E+02  0.1785E+03
     17.633  0.7265E+01  0.1786E+03
     17.645  0.7022E+01  0.1787E+03
     17.658  0.1043E+02  0.1788E+03
     17.670  0.9063E+01  0.1789E+03
     17.683  0.1472E+02  0.1791E+03
     17.695  0.1452E+02  0.1793E+03
     17.708  0.1001E+02  0.1794E+03
     17.720  0.8972E+01  0.1796E+03
     17.733  0.9998E+01  0.1797E+03
     17.745  0.1218E+02  0.1798E+03
     17.757  0.1397E+02  0.1800E+03
     17.770  0.1012E+02  0.1801E+03
     17.782  0.9979E+01  0.1803E+03
     17.795  0.1235E+02  0.1804E+03
     17.807  0.1087E+02  0.1805E+03
     17.820  0.1226E+02  0.1807E+03
     17.832  0.1088E+02  0.1808E+03
     17.845  0.1262E+02  0.1810E+03
     17.857  0.1044E+02  0.1811E+03
     17.870  0.9650E+01  0.1812E+03
     17.882  0.9862E+01  0.1814E+03
     17.895  0.1067E+02  0.1815E+03
     17.907  0.9723E+01  0.1816E+03
     17.920  0.9736E+01  0.1817E+03
     17.932  0.5698E+01  0.1818E+03
     17.945  0.5525E+01  0.1819E+03
     17.957  0.8331E+01  0.1820E+03
     17.970  0.1272E+02  0.1821E+03
     17.982  0.1051E+02  0.1823E+03
     17.995  0.9191E+01  0.1824E+03
     18.007  0.8240E+01  0.1825E+03
     18.019  0.6884E+01  0.1826E+03
     18.032  0.6279E+01  0.1827E+03
     18.044  0.9753E+01  0.1828E+03
     18.057  0.1343E+02  0.1829E+03
     18.069  0.1064E+02  0.1831E+03
     18.082  0.7933E+01  0.1832E+03
     18.094  0.7907E+01  0.1833E+03
     18.107  0.1012E+02  0.1834E+03
     18.119  0.1284E+02  0.1836E+03
     18.132  0.1198E+02  0.1837E+03
     18.144  0.9791E+01  0.1838E+03
     18.157  0.1177E+02  0.1840E+03
     18.169  0.1365E+02  0.1841E+03
     18.182  0.1076E+02  0.1843E+03
     18.194  0.8618E+01  0.1844E+03
     18.207  0.9020E+01  0.1845E+03
     18.219  0.1324E+02  0.1847E+03
     18.232  0.1309E+02  0.1848E+03
     18.244  0.1306E+02  0.1850E+03
     18.256  0.1097E+02  0.1851E+03
     18.269  0.1138E+02  0.1853E+03
     18.281  0.9288E+01  0.1854E+03
     18.294  0.6091E+01  0.1855E+03
     18.306  0.4986E+01  0.1855E+03
     18.319  0.8754E+01  0.1856E+03
     18.331  0.1466E+02  0.1858E+03
     18.344  0.1336E+02  0.1860E+03
     18.356  0.1152E+02  0.1861E+03
     18.369  0.1058E+02  0.1863E+03
     18.381  0.4880E+01  0.1863E+03
     18.394  0.4399E+01  0.1864E+03
     18.406  0.6285E+01  0.1865E+03
     18.419  0.5790E+01  0.1865E+03
     18.431  0.4041E+01  0.1866E+03
     18.444  0.9059E+01  0.1867E+03
     18.456  0.1318E+02  0.1869E+03
     18.469  0.1115E+02  0.1870E+03
     18.481  0.7577E+01  0.1871E+03
     18.493  0.7653E+01  0.1872E+03
     18.506  0.8605E+01  0.1873E+03
     18.518  0.9310E+01  0.1874E+03
     18.531  0.1092E+02  0.1875E+03
     18.543  0.1048E+02  0.1877E+03
     18.556  0.1020E+02  0.1878E+03
     18.568  0.5531E+01  0.1879E+03
     18.581  0.6202E+01  0.1879E+03
     18.593  0.9528E+01  0.1881E+03
     18.606  0.1093E+02  0.1882E+03
     18.618  0.1417E+02  0.1884E+03
     18.631  0.1448E+02  0.1886E+03
     18.643  0.1424E+02  0.1887E+03
     18.656  0.1327E+02  0.1889E+03
     18.668  0.6154E+01  0.1890E+03
     18.681  0.4006E+01  0.1890E+03
     18.693  0.8740E+01  0.1891E+03
     18.706  0.1106E+02  0.1893E+03
     18.718  0.1218E+02  0.1894E+03
     18.730  0.1024E+02  0.1896E+03
     18.743  0.7458E+01  0.1896E+03
     18.755  0.9850E+01  0.1898E+03
     18.768  0.1288E+02  0.1899E+03
     18.780  0.1183E+02  0.1901E+03
     18.793  0.1260E+02  0.1902E+03
     18.805  0.9947E+01  0.1904E+03
     18.818  0.7617E+01  0.1905E+03
     18.830  0.1185E+02  0.1906E+03
     18.843  0.1654E+02  0.1908E+03
     18.855  0.1500E+02  0.1910E+03
     18.868  0.8442E+01  0.1911E+03
     18.880  0.5612E+01  0.1912E+03
     18.893  0.1097E+02  0.1913E+03
     18.905  0.1260E+02  0.1915E+03
     18.918  0.1248E+02  0.1916E+03
     18.930  0.1283E+02  0.1918E+03
     18.943  0.1181E+02  0.1919E+03
     18.955  0.1299E+02  0.1921E+03
     18.967  0.1488E+02  0.1923E+03
     18.980  0.1161E+02  0.1924E+03
     18.992  0.8060E+01  0.1925E+03
     19.005  0.8341E+01  0.1926E+03
     19.017  0.1408E+02  0.1928E+03
     19.030  0.1643E+02  0.1930E+03
     19.042  0.1207E+02  0.1932E+03
     19.055  0.1069E+02  0.1933E+03
     19.067  0.8350E+01  0.1934E+03
     19.080  0.6876E+01  0.1935E+03
     19.092  0.8182E+01  0.1936E+03
     19.105  0.1170E+02  0.1937E+03
     19.117  0.9233E+01  0.1938E+03
     19.130  0.6917E+01  0.1939E+03
     19.142  0.7271E+01  0.1940E+03
     19.155  0.1061E+02  0.1942E+03
     19.167  0.1427E+02  0.1943E+03
     19.180  0.1339E+02  0.1945E+03
     19.192  0.1054E+02  0.1946E+03
     19.204  0.1684E+02  0.1948E+03
     19.217  0.1335E+02  0.1950E+03
     19.229  0.9524E+01  0.1951E+03
     19.242  0.9258E+01  0.1952E+03
     19.254  0.9924E+01  0.1954E+03
     19.267  0.7760E+01  0.1955E+03
     19.279  0.9022E+01  0.1956E+03
     19.292  0.8207E+01  0.1957E+03
     19.304  0.1218E+02  0.1958E+03
     19.317  0.1429E+02  0.1960E+03
     19.329  0.1314E+02  0.1962E+03
     19.342  0.1265E+02  0.1963E+03
     19.354  0.1379E+02  0.1965E+03
     19.367  0.9720E+01  0.1966E+03
     19.379  0.7463E+01  0.1967E+03
     19.392  0.1154E+02  0.1969E+03
     19.404  0.1129E+02  0.1970E+03
     19.417  0.1364E+02  0.1972E+03
     19.429  0.9114E+01  0.1973E+03
     19.441  0.5304E+01  0.1973E+03
     19.454  0.4225E+01  0.1974E+03
     19.466  0.6754E+01  0.1975E+03
     19.479  0.8087E+01  0.1976E+03
     19.491  0.9882E+01  0.1977E+03
     19.504  0.7026E+01  0.1978E+03
     19.516  0.6348E+01  0.1979E+03
     19.529  0.7199E+01  0.1980E+03
     19.541  0.7032E+01  0.1981E+03
     19.554  0.9205E+01  0.1982E+03
     19.566  0.1169E+02  0.1983E+03
     19.579  0.1612E+02  0.1985E+03
     19.591  0.1385E+02  0.1987E+03
     19.604  0.8882E+01  0.1988E+03
     19.616  0.1170E+02  0.1989E+03
     19.629  0.1795E+02  0.1992E+03
     19.641  0.1279E+02  0.1993E+03
     19.654  0.8967E+01  0.1994E+03
     19.666  0.1169E+02  0.1996E+03
     19.678  0.1054E+02  0.1997E+03
     19.691  0.1019E+02  0.1998E+03
     19.703  0.1226E+02  0.2000E+03
     19.716  0.9452E+01  0.2001E+03
     19.728  0.9973E+01  0.2002E+03
     19.741  0.1173E+02  0.2004E+03
     19.753  0.9265E+01  0.2005E+03
     19.766  0.7256E+01  0.2006E+03
     19.778  0.9491E+01  0.2007E+03
     19.791  0.1042E+02  0.2008E+03
     19.803  0.1110E+02  0.2010E+03
     19.816  0.1380E+02  0.2012E+03
     19.828  0.1120E+02  0.2013E+03
     19.841  0.8839E+01  0.2014E+03
     19.853  0.1171E+02  0.2015E+03
     19.866  0.1493E+02  0.2017E+03
     19.878  0.1600E+02  0.2019E+03
     19.891  0.1806E+02  0.2022E+03
     19.903  0.1424E+02  0.2023E+03
     19.915  0.1170E+02  0.2025E+03
     19.928  0.9176E+01  0.2026E+03
     19.940  0.1055E+02  0.2027E+03
     19.953  0.1272E+02  0.2029E+03
     19.965  0.9765E+01  0.2030E+03
     19.978  0.8420E+01  0.2031E+03
     19.990  0.1132E+02  0.2033E+03
     20.003  0.1359E+02  0.2034E+03
     20.015  0.1324E+02  0.2036E+03
     20.028  0.1309E+02  0.2038E+03
     20.040  0.1157E+02  0.2039E+03
     20.053  0.1128E+02  0.2040E+03
     20.065  0.1184E+02  0.2042E+03
     20.078  0.1312E+02  0.2044E+03
     20.090  0.1577E+02  0.2045E+03
     20.103  0.1786E+02  0.2048E+03
     20.115  0.1368E+02  0.2049E+03
     20.128  0.7507E+01  0.2050E+03
     20.140  0.7276E+01  0.2051E+03
     20.152  0.7062E+01  0.2052E+03
     20.165  0.1002E+02  0.2053E+03
     20.177  0.9688E+01  0.2055E+03
     20.190  0.9370E+01  0.2056E+03
     20.202  0.1018E+02  0.2057E+03
     20.215  0.1181E+02  0.2059E+03
     20.227  0.9087E+01  0.2060E+03
     20.240  0.9437E+01  0.2061E+03
     20.252  0.1019E+02  0.2062E+03
     20.265  0.1450E+02  0.2064E+03
     20.277  0.1441E+02  0.2066E+03
     20.290  0.1223E+02  0.2067E+03
     20.302  0.9508E+01  0.2068E+03
     20.315  0.8363E+01  0.2069E+03
     20.327  0.8030E+01  0.2070E+03
     20.340  0.8168E+01  0.2071E+03
     20.352  0.1103E+02  0.2073E+03
     20.365  0.1406E+02  0.2075E+03
     20.377  0.1308E+02  0.2076E+03
     20.389  0.1024E+02  0.2078E+03
     20.402  0.1136E+02  0.2079E+03
     20.414  0.1200E+02  0.2080E+03
     20.427  0.1125E+02  0.2082E+03
     20.439  0.1290E+02  0.2083E+03
     20.452  0.1320E+02  0.2085E+03
     20.464  0.1075E+02  0.2086E+03
     20.477  0.8536E+01  0.2087E+03
     20.489  0.6598E+01  0.2088E+03
     20.502  0.7764E+01  0.2089E+03
     20.514  0.1289E+02  0.2091E+03
     20.527  0.1504E+02  0.2093E+03
     20.539  0.1469E+02  0.2095E+03
     20.552  0.1299E+02  0.2096E+03
     20.564  0.1184E+02  0.2098E+03
     20.577  0.1048E+02  0.2099E+03
     20.589  0.1033E+02  0.2100E+03
     20.602  0.1353E+02  0.2102E+03
     20.614  0.1348E+02  0.2104E+03
     20.626  0.6662E+01  0.2104E+03
     20.639  0.5901E+01  0.2105E+03
     20.651  0.7330E+01  0.2106E+03
     20.664  0.8217E+01  0.2107E+03
     20.676  0.5536E+01  0.2108E+03
     20.689  0.8983E+01  0.2109E+03
     20.701  0.1603E+02  0.2111E+03
     20.714  0.1072E+02  0.2112E+03
     20.726  0.6208E+01  0.2113E+03
     20.739  0.9443E+01  0.2114E+03
     20.751  0.8285E+01  0.2115E+03
     20.764  0.9980E+01  0.2117E+03
     20.776  0.1040E+02  0.2118E+03
     20.789  0.1174E+02  0.2119E+03
     20.801  0.1200E+02  0.2121E+03
     20.814  0.9579E+01  0.2122E+03
     20.826  0.1110E+02  0.2123E+03
     20.839  0.1028E+02  0.2125E+03
     20.851  0.1316E+02  0.2126E+03
     20.863  0.1754E+02  0.2128E+03
     20.876  0.1551E+02  0.2130E+03
     20.888  0.1368E+02  0.2132E+03
     20.901  0.1389E+02  0.2134E+03
     20.913  0.1548E+02  0.2136E+03
     20.926  0.1180E+02  0.2137E+03
     20.938  0.7388E+01  0.2138E+03
     20.951  0.9675E+01  0.2139E+03
     20.963  0.9057E+01  0.2141E+03
     20.976  0.9286E+01  0.2142E+03
     20.988  0.7779E+01  0.2143E+03
     21.001  0.5676E+01  0.2143E+03
     21.013  0.1037E+02  0.2145E+03
     21.026  0.1308E+02  0.2146E+03
     21.038  0.9912E+01  0.2148E+03
     21.051  0.1306E+02  0.2149E+03
     21.063  0.1193E+02  0.2151E+03
     21.076  0.1409E+02  0.2152E+03
     21.088  0.1735E+02  0.2155E+03
     21.101  0.1693E+02  0.2157E+03
     21.113  0.1095E+02  0.2158E+03
     21.125  0.9025E+01  0.2159E+03
     21.138  0.1034E+02  0.2160E+03
     21.150  0.9968E+01  0.2162E+03
     21.163  0.6482E+01  0.2163E+03
     21.175  0.8590E+01  0.2164E+03
     21.188  0.7078E+01  0.2164E+03
     21.200  0.6442E+01  0.2165E+03
     21.213  0.8277E+01  0.2166E+03
     21.225  0.6505E+01  0.2167E+03
     21.238  0.9043E+01  0.2168E+03
     21.250  0.1335E+02  0.2170E+03
     21.263  0.1278E+02  0.2171E+03
     21.275  0.1396E+02  0.2173E+03
     21.288  0.1273E+02  0.2175E+03
     21.300  0.6150E+01  0.2176E+03
     21.313  0.7479E+01  0.2177E+03
     21.325  0.8106E+01  0.2178E+03
     21.338  0.7749E+01  0.2179E+03
     21.350  0.1131E+02  0.2180E+03
     21.362  0.1357E+02  0.2182E+03
     21.375  0.1472E+02  0.2183E+03
     21.387  0.1478E+02  0.2185E+03
     21.400  0.1377E+02  0.2187E+03
     21.412  0.1198E+02  0.2188E+03
     21.425  0.1331E+02  0.2190E+03
     21.437  0.1066E+02  0.2191E+03
     21.450  0.9668E+01  0.2193E+03
     21.462  0.1274E+02  0.2194E+03
     21.475  0.1126E+02  0.2196E+03
     21.487  0.1420E+02  0.2197E+03
     21.500  0.1223E+02  0.2199E+03
     21.512  0.1019E+02  0.2200E+03
     21.525  0.9695E+01  0.2201E+03
     21.537  0.1299E+02  0.2203E+03
     21.550  0.1131E+02  0.2204E+03
     21.562  0.9846E+01  0.2206E+03
     21.575  0.1251E+02  0.2207E+03
     21.587  0.9999E+01  0.2209E+03
     21.599  0.9276E+01  0.2210E+03
     21.612  0.1158E+02  0.2211E+03
     21.624  0.1351E+02  0.2213E+03
     21.637  0.1593E+02  0.2215E+03
     21.649  0.1133E+02  0.2216E+03
     21.662  0.8322E+01  0.2217E+03
     21.674  0.7850E+01  0.2218E+03
     21.687  0.6508E+01  0.2219E+03
     21.699  0.9117E+01  0.2220E+03
     21.712  0.1022E+02  0.2221E+03
     21.724  0.8801E+01  0.2223E+03
     21.737  0.7898E+01  0.2224E+03
     21.749  0.9129E+01  0.2225E+03
     21.762  0.1034E+02  0.2226E+03
     21.774  0.1442E+02  0.2228E+03
     21.787  0.1178E+02  0.2229E+03
     21.799  0.1406E+02  0.2231E+03
     21.812  0.2079E+02  0.2234E+03
     21.824  0.1951E+02  0.2236E+03
     21.836  0.1638E+02  0.2238E+03
     21.849  0.1383E+02  0.2240E+03
     21.861  0.1168E+02  0.2241E+03
     21.874  0.9542E+01  0.2242E+03
     21.886  0.7144E+01  0.2243E+03
     21.899  0.7586E+01  0.2244E+03
     21.911  0.8001E+01  0.2245E+03
     21.924  0.1009E+02  0.2247E+03
     21.936  0.1444E+02  0.2248E+03
     21.949  0.1795E+02  0.2251E+03
     21.961  0.1446E+02  0.2252E+03
     21.974  0.1091E+02  0.2254E+03
     21.986  0.9776E+01  0.2255E+03
     21.999  0.1130E+02  0.2256E+03
     22.011  0.9836E+01  0.2258E+03
     22.024  0.7328E+01  0.2259E+03
     22.036  0.1184E+02  0.2260E+03
     22.049  0.1570E+02  0.2262E+03
     22.061  0.1622E+02  0.2264E+03
     22.073  0.1013E+02  0.2265E+03
     22.086  0.1161E+02  0.2267E+03
     22.098  0.1530E+02  0.2269E+03
     22.111  0.1835E+02  0.2271E+03
     22.123  0.1375E+02  0.2273E+03
     22.136  0.1232E+02  0.2274E+03
     22.148  0.1611E+02  0.2276E+03
     22.161  0.1617E+02  0.2278E+03
     22.173  0.1716E+02  0.2280E+03
     22.186  0.1606E+02  0.2282E+03
     22.198  0.1761E+02  0.2284E+03
     22.211  0.1476E+02  0.2286E+03
     22.223  0.9816E+01  0.2288E+03
     22.236  0.9433E+01  0.2289E+03
     22.248  0.1498E+02  0.2291E+03
     22.261  0.1527E+02  0.2293E+03
     22.273  0.1415E+02  0.2294E+03
     22.286  0.1335E+02  0.2296E+03
     22.298  0.9228E+01  0.2297E+03
     22.310  0.1006E+02  0.2298E+03
     22.323  0.1688E+02  0.2300E+03
     22.335  0.1614E+02  0.2302E+03
     22.348  0.1348E+02  0.2304E+03
     22.360  0.1491E+02  0.2306E+03
     22.373  0.1112E+02  0.2307E+03
     22.385  0.1264E+02  0.2309E+03
     22.398  0.1187E+02  0.2310E+03
     22.410  0.1115E+02  0.2312E+03
     22.423  0.1149E+02  0.2313E+03
     22.435  0.9288E+01  0.2314E+03
     22.448  0.1153E+02  0.2316E+03
     22.460  0.1378E+02  0.2318E+03
     22.473  0.1450E+02  0.2319E+03
     22.485  0.1650E+02  0.2321E+03
     22.498  0.1708E+02  0.2324E+03
     22.510  0.1497E+02  0.2325E+03
     22.523  0.1369E+02  0.2327E+03
     22.535  0.1438E+02  0.2329E+03
     22.547  0.1682E+02  0.2331E+03
     22.560  0.1051E+02  0.2332E+03
     22.572  0.1201E+02  0.2334E+03
     22.585  0.1278E+02  0.2335E+03
     22.597  0.1041E+02  0.2337E+03
     22.610  0.9959E+01  0.2338E+03
     22.622  0.1304E+02  0.2340E+03
     22.635  0.1462E+02  0.2341E+03
     22.647  0.1171E+02  0.2343E+03
     22.660  0.1344E+02  0.2345E+03
     22.672  0.1171E+02  0.2346E+03
     22.685  0.1113E+02  0.2347E+03
     22.697  0.1059E+02  0.2349E+03
     22.710  0.1377E+02  0.2350E+03
     22.722  0.1069E+02  0.2352E+03
     22.735  0.1071E+02  0.2353E+03
     22.747  0.1262E+02  0.2355E+03
     22.760  0.1492E+02  0.2357E+03
     22.772  0.1493E+02  0.2358E+03
     22.784  0.1315E+02  0.2360E+03
     22.797  0.9807E+01  0.2361E+03
     22.809  0.1073E+02  0.2363E+03
     22.822  0.1258E+02  0.2364E+03
     22.834  0.1211E+02  0.2366E+03
     22.847  0.5922E+01  0.2366E+03
     22.859  0.5075E+01  0.2367E+03
     22.872  0.8330E+01  0.2368E+03
     22.884  0.1196E+02  0.2370E+03
     22.897  0.1051E+02  0.2371E+03
     22.909  0.1141E+02  0.2372E+03
     22.922  0.1203E+02  0.2374E+03
     22.934  0.1029E+02  0.2375E+03
     22.947  0.8546E+01  0.2376E+03
     22.959  0.1118E+02  0.2378E+03
     22.972  0.1804E+02  0.2380E+03
     22.984  0.1560E+02  0.2382E+03
     22.997  0.1029E+02  0.2383E+03
     23.009  0.1063E+02  0.2384E+03
     23.021  0.1098E+02  0.2386E+03
     23.034  0.1154E+02  0.2387E+03
     23.046  0.1393E+02  0.2389E+03
     23.059  0.1246E+02  0.2391E+03
     23.071  0.8532E+01  0.2392E+03
     23.084  0.8794E+01  0.2393E+03
     23.096  0.7235E+01  0.2394E+03
     23.109  0.6247E+01  0.2394E+03
     23.121  0.7670E+01  0.2395E+03
     23.134  0.9715E+01  0.2397E+03
     23.146  0.1083E+02  0.2398E+03
     23.159  0.1290E+02  0.2399E+03
     23.171  0.1409E+02  0.2401E+03
     23.184  0.1326E+02  0.2403E+03
     23.196  0.1243E+02  0.2404E+03
     23.209  0.7730E+01  0.2405E+03
     23.221  0.4842E+01  0.2406E+03
     23.234  0.5918E+01  0.2407E+03
     23.246  0.8087E+01  0.2408E+03
     23.258  0.8048E+01  0.2409E+03
     23.271  0.1045E+02  0.2410E+03
     23.283  0.1370E+02  0.2412E+03
     23.296  0.1411E+02  0.2414E+03
     23.308  0.1493E+02  0.2415E+03
     23.321  0.1170E+02  0.2417E+03
     23.333  0.7964E+01  0.2418E+03
     23.346  0.8873E+01  0.2419E+03
     23.358  0.1097E+02  0.2420E+03
     23.371  0.9685E+01  0.2422E+03
     23.383  0.8825E+01  0.2423E+03
     23.396  0.1165E+02  0.2424E+03
     23.408  0.1580E+02  0.2426E+03
     23.421  0.1217E+02  0.2428E+03
     23.433  0.9427E+01  0.2429E+03
     23.446  0.1018E+02  0.2430E+03
     23.458  0.1439E+02  0.2432E+03
     23.471  0.1872E+02  0.2434E+03
     23.483  0.1601E+02  0.2436E+03
     23.495  0.1183E+02  0.2438E+03
     23.508  0.9356E+01  0.2439E+03
     23.520  0.1159E+02  0.2440E+03
     23.533  0.1284E+02  0.2442E+03
     23.545  0.1179E+02  0.2443E+03
     23.558  0.1012E+02  0.2445E+03
     23.570  0.1082E+02  0.2446E+03
     23.583  0.1668E+02  0.2448E+03
     23.595  0.1934E+02  0.2450E+03
     23.608  0.1365E+02  0.2452E+03
     23.620  0.1226E+02  0.2454E+03
     23.633  0.1563E+02  0.2456E+03
     23.645  0.1390E+02  0.2457E+03
     23.658  0.1106E+02  0.2459E+03
     23.670  0.1061E+02  0.2460E+03
     23.683  0.1034E+02  0.2461E+03
     23.695  0.8402E+01  0.2462E+03
     23.708  0.9343E+01  0.2464E+03
     23.720  0.1300E+02  0.2465E+03
     23.732  0.1369E+02  0.2467E+03
     23.745  0.1615E+02  0.2469E+03
     23.757  0.1511E+02  0.2471E+03
     23.770  0.1314E+02  0.2472E+03
     23.782  0.1049E+02  0.2474E+03
     23.795  0.8142E+01  0.2475E+03
     23.807  0.1006E+02  0.2476E+03
     23.820  0.9877E+01  0.2477E+03
     23.832  0.1174E+02  0.2479E+03
     23.845  0.1170E+02  0.2480E+03
     23.857  0.9004E+01  0.2481E+03
     23.870  0.1010E+02  0.2483E+03
     23.882  0.1031E+02  0.2484E+03
     23.895  0.1109E+02  0.2485E+03
     23.907  0.9149E+01  0.2486E+03
     23.920  0.1255E+02  0.2488E+03
     23.932  0.1466E+02  0.2490E+03
     23.945  0.1444E+02  0.2492E+03
     23.957  0.1207E+02  0.2493E+03
     23.969  0.1475E+02  0.2495E+03
     23.982  0.1838E+02  0.2497E+03
     23.994  0.1758E+02  0.2499E+03
     24.007  0.1543E+02  0.2501E+03
     24.019  0.1262E+02  0.2503E+03
     24.032  0.8929E+01  0.2504E+03
     24.044  0.1293E+02  0.2506E+03
     24.057  0.1318E+02  0.2507E+03
     24.069  0.1209E+02  0.2509E+03
     24.082  0.9919E+01  0.2510E+03
     24.094  0.1302E+02  0.2512E+03
     24.107  0.8810E+01  0.2513E+03
     24.119  0.7347E+01  0.2514E+03
     24.132  0.1044E+02  0.2515E+03
     24.144  0.1479E+02  0.2517E+03
     24.157  0.1277E+02  0.2518E+03
     24.169  0.1114E+02  0.2520E+03
     24.182  0.1499E+02  0.2522E+03
     24.194  0.1133E+02  0.2523E+03
     24.207  0.7938E+01  0.2524E+03
     24.219  0.9039E+01  0.2525E+03
     24.231  0.8747E+01  0.2526E+03
     24.244  0.9243E+01  0.2527E+03
     24.256  0.1161E+02  0.2529E+03
     24.269  0.8835E+01  0.2530E+03
     24.281  0.6476E+01  0.2531E+03
     24.294  0.5155E+01  0.2531E+03
     24.306  0.9069E+01  0.2533E+03
     24.319  0.9792E+01  0.2534E+03
     24.331  0.8726E+01  0.2535E+03
     24.344  0.6927E+01  0.2536E+03
     24.356  0.6519E+01  0.2537E+03
     24.369  0.5241E+01  0.2537E+03
     24.381  0.3007E+01  0.2538E+03
     24.394  0.5467E+01  0.2538E+03
     24.406  0.1056E+02  0.2540E+03
     24.419  0.1245E+02  0.2541E+03
     24.431  0.7883E+01  0.2542E+03
     24.444  0.6982E+01  0.2543E+03
     24.456  0.9643E+01  0.2544E+03
     24.468  0.1015E+02  0.2545E+03
     24.481  0.7560E+01  0.2546E+03
     24.493  0.6815E+01  0.2547E+03
     24.506  0.6629E+01  0.2548E+03
     24.518  0.4765E+01  0.2549E+03
     24.531  0.4459E+01  0.2549E+03
     24.543  0.5670E+01  0.2550E+03
     24.556  0.4457E+01  0.2550E+03
     24.568  0.3763E+01  0.2551E+03
     24.581  0.3431E+01  0.2551E+03
     24.593  0.2079E+01  0.2552E+03
     24.606  0.1169E+01  0.2552E+03
     24.618  0.2908E+01  0.2552E+03
     24.631  0.5928E+01  0.2553E+03
     24.643  0.6965E+01  0.2554E+03
     24.656  0.5821E+01  0.2554E+03
     24.668  0.4398E+01  0.2555E+03
     24.681  0.1796E+01  0.2555E+03
     24.693  0.7657E+00  0.2555E+03
     24.705  0.2244E+00  0.2555E+03
     24.718  0.9300E+00  0.2555E+03
     24.730  0.1672E+01  0.2556E+03
     24.743  0.1609E+01  0.2556E+03
     24.755  0.9714E+00  0.2556E+03
     24.768  0.1097E+01  0.2556E+03
     24.780  0.1885E+01  0.2556E+03
     24.793  0.9521E+00  0.2556E+03
     24.805  0.4968E+00  0.2557E+03
     24.818  0.8209E+00  0.2557E+03
     24.830  0.2245E+00  0.2557E+03
     24.843  0.7042E-02  0.2557E+03
     24.855  0.1595E-04  0.2557E+03
     24.868  0.1981E-08  0.2557E+03
     24.880  0.1208E-13  0.2557E+03
     24.893  0.3987E-15  0.2557E+03
     24.905  0.1466E-09  0.2557E+03
     24.918  0.2827E-05  0.2557E+03
     24.930  0.2965E-02  0.2557E+03
     24.942  0.2061E+00  0.2557E+03
     24.955  0.1399E+01  0.2557E+03
     24.967  0.1313E+01  0.2557E+03
     24.980  0.3947E+00  0.2557E+03
     24.992  0.2029E+01  0.2557E+03
     25.005  0.3943E+01  0.2558E+03
     25.017  0.2806E+01  0.2558E+03
     25.030  0.1943E+01  0.2558E+03
     25.042  0.2455E+01  0.2559E+03
     25.055  0.3453E+01  0.2559E+03
     25.067  0.2213E+01  0.2559E+03
     25.080  0.1777E+01  0.2560E+03
     25.092  0.1138E+01  0.2560E+03
     25.105  0.8319E+00  0.2560E+03
     25.117  0.7024E+00  0.2560E+03
     25.130  0.7104E-01  0.2560E+03
     25.142  0.5729E-03  0.2560E+03
     25.155  0.2866E-06  0.2560E+03
     25.167  0.7619E-11  0.2560E+03
     25.179  0.0000E+00  0.2560E+03
     25.192  0.0000E+00  0.2560E+03
     25.204  0.0000E+00  0.2560E+03
     25.217  0.0000E+00  0.2560E+03
     25.229  0.0000E+00  0.2560E+03
     25.242  0.0000E+00  0.2560E+03
     25.254  0.0000E+00  0.2560E+03
     25.267  0.0000E+00  0.2560E+03
     25.279  0.0000E+00  0.2560E+03
     25.292  0.0000E+00  0.2560E+03
     25.304  0.0000E+00  0.2560E+03
     25.317  0.0000E+00  0.2560E+03
     25.329  0.0000E+00  0.2560E+03
     25.342  0.0000E+00  0.2560E+03
     25.354  0.0000E+00  0.2560E+03
     25.367  0.0000E+00  0.2560E+03
     25.379  0.0000E+00  0.2560E+03
     25.392  0.0000E+00  0.2560E+03
     25.404  0.0000E+00  0.2560E+03
     25.416  0.0000E+00  0.2560E+03
     25.429  0.0000E+00  0.2560E+03
     25.441  0.0000E+00  0.2560E+03
     25.454  0.0000E+00  0.2560E+03
     25.466  0.0000E+00  0.2560E+03
     25.479  0.0000E+00  0.2560E+03
     25.491  0.0000E+00  0.2560E+03
     25.504  0.0000E+00  0.2560E+03
     25.516  0.0000E+00  0.2560E+03
     25.529  0.0000E+00  0.2560E+03
     25.541  0.0000E+00  0.2560E+03
     25.554  0.0000E+00  0.2560E+03
     25.566  0.0000E+00  0.2560E+03
     25.579  0.0000E+00  0.2560E+03
     25.591  0.0000E+00  0.2560E+03
     25.604  0.0000E+00  0.2560E+03
     25.616  0.0000E+00  0.2560E+03
     25.629  0.0000E+00  0.2560E+03
     25.641  0.0000E+00  0.2560E+03
     25.653  0.0000E+00  0.2560E+03
     25.666  0.0000E+00  0.2560E+03
     25.678  0.0000E+00  0.2560E+03
     25.691  0.0000E+00  0.2560E+03
     25.703  0.0000E+00  0.2560E+03
     25.716  0.0000E+00  0.2560E+03
     25.728  0.0000E+00  0.2560E+03
     25.741  0.0000E+00  0.2560E+03
     25.753  0.0000E+00  0.2560E+03
     25.766  0.0000E+00  0.2560E+03
     25.778  0.0000E+00  0.2560E+03
     25.791  0.0000E+00  0.2560E+03
     25.803  0.0000E+00  0.2560E+03
     25.816  0.0000E+00  0.2560E+03
     25.828  0.0000E+00  0.2560E+03
     25.841  0.0000E+00  0.2560E+03
     25.853  0.0000E+00  0.2560E+03
     25.866  0.0000E+00  0.2560E+03
     25.878  0.0000E+00  0.2560E+03
     25.890  0.0000E+00  0.2560E+03
     25.903  0.0000E+00  0.2560E+03
     25.915  0.0000E+00  0.2560E+03
     25.928  0.0000E+00  0.2560E+03
     25.940  0.0000E+00  0.2560E+03
     25.953  0.0000E+00  0.2560E+03
     25.965  0.0000E+00  0.2560E+03
     25.978  0.0000E+00  0.2560E+03
     25.990  0.0000E+00  0.2560E+03
     26.003  0.0000E+00  0.2560E+03
     26.015  0.0000E+00  0.2560E+03
     26.028  0.0000E+00  0.2560E+03
     26.040  0.0000E+00  0.2560E+03
     26.053  0.0000E+00  0.2560E+03
     26.065  0.0000E+00  0.2560E+03
     26.078  0.0000E+00  0.2560E+03
     26.090  0.0000E+00  0.2560E+03
     26.103  0.0000E+00  0.2560E+03
     26.115  0.0000E+00  0.2560E+03
     26.127  0.0000E+00  0.2560E+03
     26.140  0.0000E+00  0.2560E+03
     26.152  0.0000E+00  0.2560E+03
     26.165  0.0000E+00  0.2560E+03
     26.177  0.0000E+00  0.2560E+03
     26.190  0.0000E+00  0.2560E+03
     26.202  0.0000E+00  0.2560E+03
     26.215  0.0000E+00  0.2560E+03
     26.227  0.0000E+00  0.2560E+03
     26.240  0.0000E+00  0.2560E+03
     26.252  0.0000E+00  0.2560E+03
     26.265  0.0000E+00  0.2560E+03
     26.277  0.0000E+00  0.2560E+03
     26.290  0.0000E+00  0.2560E+03
     26.302  0.0000E+00  0.2560E+03
     26.315  0.0000E+00  0.2560E+03
     26.327  0.0000E+00  0.2560E+03
     26.340  0.0000E+00  0.2560E+03
     26.352  0.0000E+00  0.2560E+03
     26.364  0.0000E+00  0.2560E+03
     26.377  0.0000E+00  0.2560E+03
     26.389  0.0000E+00  0.2560E+03
     26.402  0.0000E+00  0.2560E+03
     26.414  0.0000E+00  0.2560E+03
     26.427  0.0000E+00  0.2560E+03
     26.439  0.0000E+00  0.2560E+03
     26.452  0.0000E+00  0.2560E+03
     26.464  0.0000E+00  0.2560E+03
     26.477  0.0000E+00  0.2560E+03
     26.489  0.0000E+00  0.2560E+03
     26.502  0.0000E+00  0.2560E+03
     26.514  0.0000E+00  0.2560E+03
     26.527  0.0000E+00  0.2560E+03
     26.539  0.0000E+00  0.2560E+03
     26.552  0.0000E+00  0.2560E+03
     26.564  0.0000E+00  0.2560E+03
     26.577  0.0000E+00  0.2560E+03
     26.589  0.0000E+00  0.2560E+03
     26.601  0.0000E+00  0.2560E+03
     26.614  0.0000E+00  0.2560E+03
     26.626  0.0000E+00  0.2560E+03
     26.639  0.0000E+00  0.2560E+03
     26.651  0.0000E+00  0.2560E+03
     26.664  0.0000E+00  0.2560E+03
     26.676  0.0000E+00  0.2560E+03
     26.689  0.0000E+00  0.2560E+03
     26.701  0.0000E+00  0.2560E+03
     26.714  0.0000E+00  0.2560E+03
     26.726  0.0000E+00  0.2560E+03
     26.739  0.0000E+00  0.2560E+03
     26.751  0.0000E+00  0.2560E+03
     26.764  0.0000E+00  0.2560E+03
     26.776  0.0000E+00  0.2560E+03
     26.789  0.0000E+00  0.2560E+03
     26.801  0.0000E+00  0.2560E+03
     26.814  0.0000E+00  0.2560E+03
     26.826  0.0000E+00  0.2560E+03
     26.838  0.0000E+00  0.2560E+03
     26.851  0.0000E+00  0.2560E+03
     26.863  0.0000E+00  0.2560E+03
     26.876  0.0000E+00  0.2560E+03
     26.888  0.0000E+00  0.2560E+03
     26.901  0.0000E+00  0.2560E+03
     26.913  0.0000E+00  0.2560E+03
     26.926  0.0000E+00  0.2560E+03
     26.938  0.0000E+00  0.2560E+03
     26.951  0.0000E+00  0.2560E+03
     26.963  0.0000E+00  0.2560E+03
     26.976  0.0000E+00  0.2560E+03
     26.988  0.0000E+00  0.2560E+03
     27.001  0.0000E+00  0.2560E+03
     27.013  0.0000E+00  0.2560E+03
     27.026  0.0000E+00  0.2560E+03
     27.038  0.0000E+00  0.2560E+03
     27.051  0.0000E+00  0.2560E+03
     27.063  0.0000E+00  0.2560E+03
     27.075  0.0000E+00  0.2560E+03
     27.088  0.0000E+00  0.2560E+03
     27.100  0.0000E+00  0.2560E+03
     27.113  0.0000E+00  0.2560E+03
     27.125  0.0000E+00  0.2560E+03
     27.138  0.0000E+00  0.2560E+03
     27.150  0.0000E+00  0.2560E+03
     27.163  0.0000E+00  0.2560E+03
     27.175  0.0000E+00  0.2560E+03
     27.188  0.0000E+00  0.2560E+03
     27.200  0.0000E+00  0.2560E+03
     27.213  0.0000E+00  0.2560E+03
     27.225  0.0000E+00  0.2560E+03
     27.238  0.0000E+00  0.2560E+03
     27.250  0.0000E+00  0.2560E+03
     27.263  0.0000E+00  0.2560E+03
     27.275  0.0000E+00  0.2560E+03
     27.288  0.0000E+00  0.2560E+03
     27.300  0.0000E+00  0.2560E+03
     27.313  0.0000E+00  0.2560E+03
     27.325  0.0000E+00  0.2560E+03
     27.337  0.0000E+00  0.2560E+03
     27.350  0.0000E+00  0.2560E+03
     27.362  0.0000E+00  0.2560E+03
     27.375  0.0000E+00  0.2560E+03
