  16  16   0   0
  0.2012733E+02  0.4979000E-09  0.4979000E-09  0.1500000E-08  0.5000000E-15
  1.000000000000000E-004
  CAR 
 Dielectric_function                     
     30.30170479    -24.92876645 4000     -0.34462922      1.00000000
    -24.929  0.0000E+00  0.0000E+00
    -24.915  0.0000E+00  0.0000E+00
    -24.901  0.0000E+00  0.0000E+00
    -24.887  0.0000E+00  0.0000E+00
    -24.874  0.0000E+00  0.0000E+00
    -24.860  0.0000E+00  0.0000E+00
    -24.846  0.0000E+00  0.0000E+00
    -24.832  0.0000E+00  0.0000E+00
    -24.818  0.0000E+00  0.0000E+00
    -24.804  0.0000E+00  0.0000E+00
    -24.791  0.0000E+00  0.0000E+00
    -24.777  0.0000E+00  0.0000E+00
    -24.763  0.0000E+00  0.0000E+00
    -24.749  0.0000E+00  0.0000E+00
    -24.735  0.0000E+00  0.0000E+00
    -24.722  0.0000E+00  0.0000E+00
    -24.708  0.0000E+00  0.0000E+00
    -24.694  0.0000E+00  0.0000E+00
    -24.680  0.0000E+00  0.0000E+00
    -24.666  0.0000E+00  0.0000E+00
    -24.653  0.0000E+00  0.0000E+00
    -24.639  0.0000E+00  0.0000E+00
    -24.625  0.0000E+00  0.0000E+00
    -24.611  0.0000E+00  0.0000E+00
    -24.597  0.0000E+00  0.0000E+00
    -24.583  0.0000E+00  0.0000E+00
    -24.570  0.0000E+00  0.0000E+00
    -24.556  0.0000E+00  0.0000E+00
    -24.542  0.0000E+00  0.0000E+00
    -24.528  0.0000E+00  0.0000E+00
    -24.514  0.0000E+00  0.0000E+00
    -24.501  0.0000E+00  0.0000E+00
    -24.487  0.0000E+00  0.0000E+00
    -24.473  0.0000E+00  0.0000E+00
    -24.459  0.0000E+00  0.0000E+00
    -24.445  0.0000E+00  0.0000E+00
    -24.432  0.0000E+00  0.0000E+00
    -24.418  0.0000E+00  0.0000E+00
    -24.404  0.0000E+00  0.0000E+00
    -24.390  0.0000E+00  0.0000E+00
    -24.376  0.0000E+00  0.0000E+00
    -24.363  0.0000E+00  0.0000E+00
    -24.349  0.0000E+00  0.0000E+00
    -24.335  0.0000E+00  0.0000E+00
    -24.321  0.0000E+00  0.0000E+00
    -24.307  0.0000E+00  0.0000E+00
    -24.293  0.0000E+00  0.0000E+00
    -24.280  0.0000E+00  0.0000E+00
    -24.266  0.0000E+00  0.0000E+00
    -24.252  0.0000E+00  0.0000E+00
    -24.238  0.0000E+00  0.0000E+00
    -24.224  0.0000E+00  0.0000E+00
    -24.211  0.0000E+00  0.0000E+00
    -24.197  0.0000E+00  0.0000E+00
    -24.183  0.0000E+00  0.0000E+00
    -24.169  0.0000E+00  0.0000E+00
    -24.155  0.0000E+00  0.0000E+00
    -24.142  0.0000E+00  0.0000E+00
    -24.128  0.0000E+00  0.0000E+00
    -24.114  0.0000E+00  0.0000E+00
    -24.100  0.0000E+00  0.0000E+00
    -24.086  0.0000E+00  0.0000E+00
    -24.072  0.0000E+00  0.0000E+00
    -24.059  0.0000E+00  0.0000E+00
    -24.045  0.0000E+00  0.0000E+00
    -24.031  0.0000E+00  0.0000E+00
    -24.017  0.0000E+00  0.0000E+00
    -24.003  0.0000E+00  0.0000E+00
    -23.990  0.0000E+00  0.0000E+00
    -23.976  0.0000E+00  0.0000E+00
    -23.962  0.0000E+00  0.0000E+00
    -23.948  0.0000E+00  0.0000E+00
    -23.934  0.0000E+00  0.0000E+00
    -23.921  0.0000E+00  0.0000E+00
    -23.907  0.0000E+00  0.0000E+00
    -23.893  0.0000E+00  0.0000E+00
    -23.879  0.0000E+00  0.0000E+00
    -23.865  0.0000E+00  0.0000E+00
    -23.852  0.0000E+00  0.0000E+00
    -23.838  0.0000E+00  0.0000E+00
    -23.824  0.0000E+00  0.0000E+00
    -23.810  0.0000E+00  0.0000E+00
    -23.796  0.0000E+00  0.0000E+00
    -23.782  0.0000E+00  0.0000E+00
    -23.769  0.0000E+00  0.0000E+00
    -23.755  0.0000E+00  0.0000E+00
    -23.741  0.0000E+00  0.0000E+00
    -23.727  0.0000E+00  0.0000E+00
    -23.713  0.0000E+00  0.0000E+00
    -23.700  0.0000E+00  0.0000E+00
    -23.686  0.0000E+00  0.0000E+00
    -23.672  0.0000E+00  0.0000E+00
    -23.658  0.0000E+00  0.0000E+00
    -23.644  0.0000E+00  0.0000E+00
    -23.631  0.0000E+00  0.0000E+00
    -23.617  0.0000E+00  0.0000E+00
    -23.603  0.0000E+00  0.0000E+00
    -23.589  0.0000E+00  0.0000E+00
    -23.575  0.0000E+00  0.0000E+00
    -23.561  0.0000E+00  0.0000E+00
    -23.548  0.0000E+00  0.0000E+00
    -23.534  0.0000E+00  0.0000E+00
    -23.520  0.0000E+00  0.0000E+00
    -23.506  0.0000E+00  0.0000E+00
    -23.492  0.0000E+00  0.0000E+00
    -23.479  0.0000E+00  0.0000E+00
    -23.465  0.0000E+00  0.0000E+00
    -23.451  0.0000E+00  0.0000E+00
    -23.437  0.0000E+00  0.0000E+00
    -23.423  0.0000E+00  0.0000E+00
    -23.410  0.0000E+00  0.0000E+00
    -23.396  0.0000E+00  0.0000E+00
    -23.382  0.0000E+00  0.0000E+00
    -23.368  0.0000E+00  0.0000E+00
    -23.354  0.0000E+00  0.0000E+00
    -23.340  0.0000E+00  0.0000E+00
    -23.327  0.0000E+00  0.0000E+00
    -23.313  0.0000E+00  0.0000E+00
    -23.299  0.0000E+00  0.0000E+00
    -23.285  0.0000E+00  0.0000E+00
    -23.271  0.0000E+00  0.0000E+00
    -23.258  0.0000E+00  0.0000E+00
    -23.244  0.0000E+00  0.0000E+00
    -23.230  0.0000E+00  0.0000E+00
    -23.216  0.0000E+00  0.0000E+00
    -23.202  0.0000E+00  0.0000E+00
    -23.189  0.0000E+00  0.0000E+00
    -23.175  0.0000E+00  0.0000E+00
    -23.161  0.0000E+00  0.0000E+00
    -23.147  0.0000E+00  0.0000E+00
    -23.133  0.0000E+00  0.0000E+00
    -23.120  0.0000E+00  0.0000E+00
    -23.106  0.0000E+00  0.0000E+00
    -23.092  0.0000E+00  0.0000E+00
    -23.078  0.0000E+00  0.0000E+00
    -23.064  0.0000E+00  0.0000E+00
    -23.050  0.0000E+00  0.0000E+00
    -23.037  0.0000E+00  0.0000E+00
    -23.023  0.0000E+00  0.0000E+00
    -23.009  0.0000E+00  0.0000E+00
    -22.995  0.0000E+00  0.0000E+00
    -22.981  0.0000E+00  0.0000E+00
    -22.968  0.0000E+00  0.0000E+00
    -22.954  0.0000E+00  0.0000E+00
    -22.940  0.0000E+00  0.0000E+00
    -22.926  0.0000E+00  0.0000E+00
    -22.912  0.0000E+00  0.0000E+00
    -22.899  0.0000E+00  0.0000E+00
    -22.885  0.0000E+00  0.0000E+00
    -22.871  0.0000E+00  0.0000E+00
    -22.857  0.0000E+00  0.0000E+00
    -22.843  0.0000E+00  0.0000E+00
    -22.829  0.0000E+00  0.0000E+00
    -22.816  0.0000E+00  0.0000E+00
    -22.802  0.0000E+00  0.0000E+00
    -22.788  0.0000E+00  0.0000E+00
    -22.774  0.0000E+00  0.0000E+00
    -22.760  0.0000E+00  0.0000E+00
    -22.747  0.0000E+00  0.0000E+00
    -22.733  0.0000E+00  0.0000E+00
    -22.719  0.0000E+00  0.0000E+00
    -22.705  0.0000E+00  0.0000E+00
    -22.691  0.0000E+00  0.0000E+00
    -22.678  0.0000E+00  0.0000E+00
    -22.664  0.0000E+00  0.0000E+00
    -22.650  0.0000E+00  0.0000E+00
    -22.636  0.0000E+00  0.0000E+00
    -22.622  0.0000E+00  0.0000E+00
    -22.609  0.0000E+00  0.0000E+00
    -22.595  0.0000E+00  0.0000E+00
    -22.581  0.0000E+00  0.0000E+00
    -22.567  0.0000E+00  0.0000E+00
    -22.553  0.0000E+00  0.0000E+00
    -22.539  0.0000E+00  0.0000E+00
    -22.526  0.0000E+00  0.0000E+00
    -22.512  0.0000E+00  0.0000E+00
    -22.498  0.0000E+00  0.0000E+00
    -22.484  0.0000E+00  0.0000E+00
    -22.470  0.4314E-13  0.5958E-15
    -22.457  0.1530E-07  0.2113E-09
    -22.443  0.1341E-03  0.1852E-05
    -22.429  0.3275E-01  0.4542E-03
    -22.415  0.3153E+00  0.4809E-02
    -22.401  0.8707E+00  0.1683E-01
    -22.388  0.1970E+01  0.4404E-01
    -22.374  0.3210E+00  0.4847E-01
    -22.360  0.4363E+00  0.5449E-01
    -22.346  0.2055E+01  0.8287E-01
    -22.332  0.1711E+01  0.1065E+00
    -22.318  0.1676E+01  0.1296E+00
    -22.305  0.1334E+00  0.1315E+00
    -22.291  0.1041E-02  0.1315E+00
    -22.277  0.2428E+00  0.1348E+00
    -22.263  0.3259E+01  0.1799E+00
    -22.249  0.2419E+01  0.2133E+00
    -22.236  0.1474E+00  0.2153E+00
    -22.222  0.1287E+01  0.2331E+00
    -22.208  0.1560E+01  0.2546E+00
    -22.194  0.1033E+00  0.2561E+00
    -22.180  0.7807E-03  0.2561E+00
    -22.167  0.1588E+00  0.2583E+00
    -22.153  0.1758E+01  0.2825E+00
    -22.139  0.2318E+01  0.3145E+00
    -22.125  0.4028E+01  0.3702E+00
    -22.111  0.7512E+00  0.3805E+00
    -22.097  0.5867E-02  0.3806E+00
    -22.084  0.3367E-01  0.3811E+00
    -22.070  0.1081E+01  0.3960E+00
    -22.056  0.1735E+01  0.4200E+00
    -22.042  0.1566E+00  0.4221E+00
    -22.028  0.1053E-02  0.4222E+00
    -22.015  0.2164E+00  0.4251E+00
    -22.001  0.3160E+01  0.4688E+00
    -21.987  0.2531E+01  0.5037E+00
    -21.973  0.2064E+00  0.5066E+00
    -21.959  0.2499E+01  0.5411E+00
    -21.946  0.3188E+01  0.5851E+00
    -21.932  0.2237E+00  0.5882E+00
    -21.918  0.5616E-03  0.5882E+00
    -21.904  0.3603E-05  0.5882E+00
    -21.890  0.8535E-02  0.5884E+00
    -21.877  0.6175E+00  0.5969E+00
    -21.863  0.1999E+01  0.6245E+00
    -21.849  0.3820E+00  0.6298E+00
    -21.835  0.3901E+00  0.6351E+00
    -21.821  0.2073E+01  0.6638E+00
    -21.807  0.2814E+01  0.7026E+00
    -21.794  0.3442E+01  0.7502E+00
    -21.780  0.2995E+00  0.7543E+00
    -21.766  0.1594E-02  0.7543E+00
    -21.752  0.2384E+00  0.7576E+00
    -21.738  0.3243E+01  0.8024E+00
    -21.725  0.2437E+01  0.8361E+00
    -21.711  0.9408E-01  0.8374E+00
    -21.697  0.1210E-03  0.8374E+00
    -21.683  0.4114E-08  0.8374E+00
    -21.669  0.7615E-07  0.8374E+00
    -21.656  0.7104E-03  0.8374E+00
    -21.642  0.1841E+00  0.8399E+00
    -21.628  0.1821E+01  0.8651E+00
    -21.614  0.2407E+01  0.8983E+00
    -21.600  0.3963E+01  0.9530E+00
    -21.586  0.6498E+00  0.9620E+00
    -21.573  0.9312E+00  0.9749E+00
    -21.559  0.4034E+01  0.1031E+01
    -21.545  0.1031E+01  0.1045E+01
    -21.531  0.1143E-01  0.1045E+01
    -21.517  0.3873E-05  0.1045E+01
    -21.504  0.1129E-02  0.1045E+01
    -21.490  0.3260E+00  0.1050E+01
    -21.476  0.3501E+01  0.1098E+01
    -21.462  0.2121E+01  0.1127E+01
    -21.448  0.6395E-01  0.1128E+01
    -21.435  0.6258E-04  0.1128E+01
    -21.421  0.1603E-08  0.1128E+01
    -21.407  0.2362E-06  0.1128E+01
    -21.393  0.1502E-02  0.1128E+01
    -21.379  0.2707E+00  0.1132E+01
    -21.366  0.1988E+01  0.1159E+01
    -21.352  0.3492E+01  0.1207E+01
    -21.338  0.5606E+01  0.1285E+01
    -21.324  0.6650E+00  0.1294E+01
    -21.310  0.3391E-02  0.1294E+01
    -21.296  0.1708E+00  0.1296E+01
    -21.283  0.2953E+01  0.1337E+01
    -21.269  0.2752E+01  0.1375E+01
    -21.255  0.1358E+00  0.1377E+01
    -21.241  0.2295E-03  0.1377E+01
    -21.227  0.1036E-07  0.1377E+01
    -21.214  0.1012E-06  0.1377E+01
    -21.200  0.1081E-02  0.1377E+01
    -21.186  0.3186E+00  0.1382E+01
    -21.172  0.3483E+01  0.1430E+01
    -21.158  0.2144E+01  0.1459E+01
    -21.145  0.6590E-01  0.1460E+01
    -21.131  0.6585E-04  0.1460E+01
    -21.117  0.1341E-03  0.1460E+01
    -21.103  0.9982E-01  0.1462E+01
    -21.089  0.2487E+01  0.1496E+01
    -21.075  0.3199E+01  0.1540E+01
    -21.062  0.2765E+00  0.1544E+01
    -21.048  0.1932E+01  0.1571E+01
    -21.034  0.3816E+01  0.1623E+01
    -21.020  0.2173E+01  0.1653E+01
    -21.006  0.1020E+01  0.1667E+01
    -20.993  0.2876E-01  0.1668E+01
    -20.979  0.1079E-01  0.1668E+01
    -20.965  0.1003E+01  0.1682E+01
    -20.951  0.4036E+01  0.1738E+01
    -20.937  0.9538E+00  0.1751E+01
    -20.924  0.9654E-02  0.1751E+01
    -20.910  0.2883E-05  0.1751E+01
    -20.896  0.2174E-10  0.1751E+01
    -20.882  0.4843E-12  0.1751E+01
    -20.868  0.1504E-06  0.1751E+01
    -20.855  0.1208E-02  0.1751E+01
    -20.841  0.2989E+00  0.1755E+01
    -20.827  0.3260E+01  0.1800E+01
    -20.813  0.2349E+01  0.1832E+01
    -20.799  0.1868E+00  0.1835E+01
    -20.785  0.1473E+01  0.1855E+01
    -20.772  0.2249E+01  0.1886E+01
    -20.758  0.4096E+01  0.1943E+01
    -20.744  0.1106E+01  0.1958E+01
    -20.730  0.1339E-01  0.1958E+01
    -20.716  0.6258E-01  0.1959E+01
    -20.703  0.1948E+01  0.1986E+01
    -20.689  0.3561E+01  0.2035E+01
    -20.675  0.4509E+00  0.2042E+01
    -20.661  0.7157E+00  0.2052E+01
    -20.647  0.1964E+01  0.2079E+01
    -20.634  0.3152E+00  0.2083E+01
    -20.620  0.2269E-02  0.2083E+01
    -20.606  0.1362E+00  0.2085E+01
    -20.592  0.2755E+01  0.2123E+01
    -20.578  0.2951E+01  0.2164E+01
    -20.564  0.1703E+00  0.2166E+01
    -20.551  0.3431E-03  0.2166E+01
    -20.537  0.1861E-07  0.2166E+01
    -20.523  0.2470E-13  0.2166E+01
    -20.509  0.0000E+00  0.2166E+01
    -20.495  0.4690E-12  0.2166E+01
    -20.482  0.1699E-06  0.2166E+01
    -20.468  0.1666E-02  0.2166E+01
    -20.454  0.5089E+00  0.2173E+01
    -20.440  0.6413E+01  0.2262E+01
    -20.426  0.4893E+01  0.2329E+01
    -20.413  0.3648E+00  0.2334E+01
    -20.399  0.2869E+01  0.2374E+01
    -20.385  0.2839E+01  0.2413E+01
    -20.371  0.1499E+00  0.2415E+01
    -20.357  0.2735E-03  0.2415E+01
    -20.343  0.4853E-04  0.2415E+01
    -20.330  0.5499E-01  0.2416E+01
    -20.316  0.2003E+01  0.2444E+01
    -20.302  0.3588E+01  0.2493E+01
    -20.288  0.3650E+00  0.2498E+01
    -20.274  0.1776E-02  0.2498E+01
    -20.261  0.1316E+00  0.2500E+01
    -20.247  0.1663E+01  0.2523E+01
    -20.233  0.1169E+01  0.2539E+01
    -20.219  0.4185E-01  0.2540E+01
    -20.205  0.9809E-02  0.2540E+01
    -20.192  0.9586E+00  0.2553E+01
    -20.178  0.4036E+01  0.2609E+01
    -20.164  0.9981E+00  0.2623E+01
    -20.150  0.1065E-01  0.2623E+01
    -20.136  0.3365E-05  0.2623E+01
    -20.123  0.6334E-09  0.2623E+01
    -20.109  0.2573E-04  0.2623E+01
    -20.095  0.2848E-01  0.2623E+01
    -20.081  0.1018E+01  0.2637E+01
    -20.067  0.2262E+01  0.2669E+01
    -20.053  0.3807E+01  0.2721E+01
    -20.040  0.1850E+01  0.2747E+01
    -20.026  0.3223E+00  0.2751E+01
    -20.012  0.3364E+01  0.2798E+01
    -19.998  0.3674E+01  0.2848E+01
    -19.984  0.4039E+01  0.2904E+01
    -19.971  0.6754E+00  0.2913E+01
    -19.957  0.4686E-02  0.2913E+01
    -19.943  0.9350E-06  0.2913E+01
    -19.929  0.4712E-08  0.2913E+01
    -19.915  0.1329E-03  0.2913E+01
    -19.902  0.9933E-01  0.2915E+01
    -19.888  0.2483E+01  0.2949E+01
    -19.874  0.3203E+01  0.2993E+01
    -19.860  0.2275E+00  0.2997E+01
    -19.846  0.5791E-03  0.2997E+01
    -19.832  0.1514E-04  0.2997E+01
    -19.819  0.2069E-01  0.2997E+01
    -19.805  0.8965E+00  0.3009E+01
    -19.791  0.1865E+01  0.3035E+01
    -19.777  0.2229E+00  0.3038E+01
    -19.763  0.1906E-02  0.3038E+01
    -19.750  0.2854E+00  0.3042E+01
    -19.736  0.3394E+01  0.3089E+01
    -19.722  0.2257E+01  0.3120E+01
    -19.708  0.7578E-01  0.3121E+01
    -19.694  0.1756E-01  0.3121E+01
    -19.681  0.1248E+01  0.3139E+01
    -19.667  0.3993E+01  0.3194E+01
    -19.653  0.7599E+00  0.3204E+01
    -19.639  0.1038E+01  0.3219E+01
    -19.625  0.4034E+01  0.3274E+01
    -19.612  0.9260E+00  0.3287E+01
    -19.598  0.9061E-02  0.3287E+01
    -19.584  0.5599E-05  0.3287E+01
    -19.570  0.1125E-01  0.3287E+01
    -19.556  0.1387E+01  0.3307E+01
    -19.542  0.7808E+01  0.3414E+01
    -19.529  0.2770E+01  0.3453E+01
    -19.515  0.4883E-01  0.3453E+01
    -19.501  0.2875E-04  0.3453E+01
    -19.487  0.4642E-09  0.3453E+01
    -19.473  0.5367E-12  0.3453E+01
    -19.460  0.1887E-06  0.3453E+01
    -19.446  0.1638E-02  0.3453E+01
    -19.432  0.3967E+00  0.3459E+01
    -19.418  0.3650E+01  0.3509E+01
    -19.404  0.1916E+01  0.3536E+01
    -19.391  0.4899E-01  0.3536E+01
    -19.377  0.3998E-04  0.3536E+01
    -19.363  0.9007E-09  0.3536E+01
    -19.349  0.4517E-05  0.3536E+01
    -19.335  0.9889E-02  0.3536E+01
    -19.321  0.6587E+00  0.3546E+01
    -19.308  0.1985E+01  0.3573E+01
    -19.294  0.3499E+00  0.3578E+01
    -19.280  0.3285E-02  0.3578E+01
    -19.266  0.3178E+00  0.3582E+01
    -19.252  0.4726E+01  0.3648E+01
    -19.239  0.5034E+01  0.3717E+01
    -19.225  0.4167E+01  0.3775E+01
    -19.211  0.7808E+00  0.3785E+01
    -19.197  0.6653E-02  0.3785E+01
    -19.183  0.1683E+00  0.3788E+01
    -19.170  0.2941E+01  0.3828E+01
    -19.156  0.2766E+01  0.3867E+01
    -19.142  0.1378E+00  0.3869E+01
    -19.128  0.2357E-03  0.3869E+01
    -19.114  0.1078E-07  0.3869E+01
    -19.100  0.2066E-05  0.3869E+01
    -19.087  0.7807E-02  0.3869E+01
    -19.073  0.8636E+00  0.3881E+01
    -19.059  0.4145E+01  0.3938E+01
    -19.045  0.3741E+01  0.3989E+01
    -19.031  0.3075E+01  0.4032E+01
    -19.018  0.1932E+00  0.4035E+01
    -19.004  0.4307E-03  0.4035E+01
    -18.990  0.2595E-07  0.4035E+01
    -18.976  0.5708E-13  0.4035E+01
    -18.962  0.1331E-07  0.4035E+01
    -18.949  0.2365E-03  0.4035E+01
    -18.935  0.1229E+00  0.4036E+01
    -18.921  0.2521E+01  0.4071E+01
    -18.907  0.3122E+01  0.4114E+01
    -18.893  0.2454E+00  0.4118E+01
    -18.880  0.8130E-03  0.4118E+01
    -18.866  0.8160E-07  0.4118E+01
    -18.852  0.2185E-12  0.4118E+01
    -18.838  0.7860E-08  0.4118E+01
    -18.824  0.2123E-03  0.4118E+01
    -18.810  0.1535E+00  0.4120E+01
    -18.797  0.3753E+01  0.4172E+01
    -18.783  0.4776E+01  0.4238E+01
    -18.769  0.4323E+00  0.4244E+01
    -18.755  0.2465E+01  0.4278E+01
    -18.741  0.4105E+01  0.4334E+01
    -18.728  0.4262E+01  0.4393E+01
    -18.714  0.1085E+01  0.4408E+01
    -18.700  0.1293E-01  0.4408E+01
    -18.686  0.1136E+00  0.4410E+01
    -18.672  0.2597E+01  0.4446E+01
    -18.659  0.3099E+01  0.4489E+01
    -18.645  0.2018E+00  0.4491E+01
    -18.631  0.4659E-03  0.4491E+01
    -18.617  0.2912E-07  0.4491E+01
    -18.603  0.7443E-13  0.4491E+01
    -18.589  0.2186E-07  0.4491E+01
    -18.576  0.3831E-03  0.4491E+01
    -18.562  0.1811E+00  0.4494E+01
    -18.548  0.3005E+01  0.4535E+01
    -18.534  0.2700E+01  0.4573E+01
    -18.520  0.4479E+00  0.4579E+01
    -18.507  0.3487E+01  0.4627E+01
    -18.493  0.2139E+01  0.4657E+01
    -18.479  0.6547E-01  0.4657E+01
    -18.465  0.6512E-04  0.4657E+01
    -18.451  0.1695E-08  0.4657E+01
    -18.438  0.1069E-11  0.4657E+01
    -18.424  0.3146E-06  0.4657E+01
    -18.410  0.2299E-02  0.4657E+01
    -18.396  0.4725E+00  0.4664E+01
    -18.382  0.3769E+01  0.4716E+01
    -18.369  0.1731E+01  0.4740E+01
    -18.355  0.3793E-01  0.4740E+01
    -18.341  0.1184E-01  0.4741E+01
    -18.327  0.7122E+00  0.4750E+01
    -18.313  0.2287E+01  0.4782E+01
    -18.299  0.3808E+01  0.4835E+01
    -18.286  0.2135E+01  0.4864E+01
    -18.272  0.6558E-01  0.4865E+01
    -18.258  0.2239E+00  0.4868E+01
    -18.244  0.3802E+01  0.4921E+01
    -18.230  0.4610E+01  0.4984E+01
    -18.217  0.3821E+00  0.4990E+01
    -18.203  0.5943E-01  0.4990E+01
    -18.189  0.1923E+01  0.5017E+01
    -18.175  0.3592E+01  0.5067E+01
    -18.161  0.4520E+00  0.5073E+01
    -18.148  0.1179E+01  0.5089E+01
    -18.134  0.4012E+01  0.5145E+01
    -18.120  0.8025E+00  0.5156E+01
    -18.106  0.6693E-02  0.5156E+01
    -18.092  0.1625E-05  0.5156E+01
    -18.078  0.9905E-11  0.5156E+01
    -18.065  0.1662E-12  0.5156E+01
    -18.051  0.4171E-07  0.5156E+01
    -18.037  0.2653E-03  0.5156E+01
    -18.023  0.6087E-01  0.5157E+01
    -18.009  0.1560E+01  0.5178E+01
    -17.996  0.5596E+01  0.5255E+01
    -17.982  0.2227E+01  0.5286E+01
    -17.968  0.4847E+00  0.5293E+01
    -17.954  0.3924E+01  0.5347E+01
    -17.940  0.5993E+01  0.5430E+01
    -17.927  0.1653E+01  0.5453E+01
    -17.913  0.4839E-01  0.5453E+01
    -17.899  0.2681E+00  0.5457E+01
    -17.885  0.3342E+01  0.5503E+01
    -17.871  0.2331E+01  0.5535E+01
    -17.857  0.7523E+00  0.5546E+01
    -17.844  0.2148E+01  0.5575E+01
    -17.830  0.3468E+01  0.5623E+01
    -17.816  0.5842E+01  0.5704E+01
    -17.802  0.3698E+01  0.5755E+01
    -17.788  0.3143E+01  0.5798E+01
    -17.775  0.7880E+01  0.5907E+01
    -17.761  0.3140E+01  0.5951E+01
    -17.747  0.8690E-01  0.5952E+01
    -17.733  0.9014E+00  0.5964E+01
    -17.719  0.1900E+01  0.5991E+01
    -17.706  0.1900E+01  0.6017E+01
    -17.692  0.4122E+01  0.6074E+01
    -17.678  0.4900E+01  0.6141E+01
    -17.664  0.4059E+01  0.6197E+01
    -17.650  0.1121E+01  0.6213E+01
    -17.637  0.4151E+01  0.6270E+01
    -17.623  0.3744E+01  0.6322E+01
    -17.609  0.3145E+01  0.6365E+01
    -17.595  0.2093E+01  0.6394E+01
    -17.581  0.3577E+01  0.6444E+01
    -17.567  0.2392E+01  0.6477E+01
    -17.554  0.1114E+01  0.6492E+01
    -17.540  0.1572E+01  0.6514E+01
    -17.526  0.3697E+01  0.6565E+01
    -17.512  0.3423E+01  0.6612E+01
    -17.498  0.2788E+00  0.6616E+01
    -17.485  0.8235E+00  0.6627E+01
    -17.471  0.4018E+01  0.6683E+01
    -17.457  0.1308E+01  0.6701E+01
    -17.443  0.2865E+01  0.6741E+01
    -17.429  0.2848E+01  0.6780E+01
    -17.416  0.1865E+00  0.6782E+01
    -17.402  0.1427E+01  0.6802E+01
    -17.388  0.5591E+01  0.6879E+01
    -17.374  0.5310E+01  0.6953E+01
    -17.360  0.2784E+01  0.6991E+01
    -17.346  0.3243E+01  0.7036E+01
    -17.333  0.2553E+01  0.7071E+01
    -17.319  0.1470E+00  0.7073E+01
    -17.305  0.1496E+01  0.7094E+01
    -17.291  0.6466E+01  0.7183E+01
    -17.277  0.7705E+01  0.7290E+01
    -17.264  0.4728E+01  0.7355E+01
    -17.250  0.6379E+00  0.7364E+01
    -17.236  0.1594E+01  0.7386E+01
    -17.222  0.4431E+01  0.7447E+01
    -17.208  0.3022E+01  0.7489E+01
    -17.195  0.4208E+01  0.7547E+01
    -17.181  0.4330E+01  0.7607E+01
    -17.167  0.2146E+01  0.7636E+01
    -17.153  0.6168E+01  0.7721E+01
    -17.139  0.6260E+01  0.7808E+01
    -17.126  0.2559E+01  0.7843E+01
    -17.112  0.3846E+01  0.7896E+01
    -17.098  0.1828E+01  0.7922E+01
    -17.084  0.4374E+01  0.7982E+01
    -17.070  0.2748E+01  0.8020E+01
    -17.056  0.6023E+00  0.8028E+01
    -17.043  0.2325E+01  0.8060E+01
    -17.029  0.6324E+01  0.8148E+01
    -17.015  0.8492E+01  0.8265E+01
    -17.001  0.9061E+01  0.8390E+01
    -16.987  0.8143E+00  0.8401E+01
    -16.974  0.3149E-02  0.8401E+01
    -16.960  0.4116E-02  0.8401E+01
    -16.946  0.5964E+00  0.8410E+01
    -16.932  0.4099E+01  0.8466E+01
    -16.918  0.5794E+01  0.8546E+01
    -16.905  0.4276E+01  0.8605E+01
    -16.891  0.2658E+00  0.8609E+01
    -16.877  0.2587E+00  0.8613E+01
    -16.863  0.1080E+01  0.8628E+01
    -16.849  0.2794E+01  0.8666E+01
    -16.835  0.3321E+01  0.8712E+01
    -16.822  0.4260E+01  0.8771E+01
    -16.808  0.6665E+01  0.8863E+01
    -16.794  0.1144E+01  0.8879E+01
    -16.780  0.3463E+00  0.8883E+01
    -16.766  0.3509E+01  0.8932E+01
    -16.753  0.2354E+01  0.8964E+01
    -16.739  0.3326E+01  0.9010E+01
    -16.725  0.2414E+01  0.9044E+01
    -16.711  0.9539E-01  0.9045E+01
    -16.697  0.7056E+00  0.9055E+01
    -16.684  0.5543E+01  0.9131E+01
    -16.670  0.2697E+01  0.9169E+01
    -16.656  0.8982E-01  0.9170E+01
    -16.642  0.9576E+00  0.9183E+01
    -16.628  0.4179E+01  0.9241E+01
    -16.615  0.3589E+01  0.9290E+01
    -16.601  0.5416E+00  0.9298E+01
    -16.587  0.3341E+01  0.9344E+01
    -16.573  0.2322E+01  0.9376E+01
    -16.559  0.8205E-01  0.9377E+01
    -16.545  0.9565E-04  0.9377E+01
    -16.532  0.2935E-08  0.9377E+01
    -16.518  0.1172E-07  0.9377E+01
    -16.504  0.2009E-03  0.9377E+01
    -16.490  0.9296E-01  0.9378E+01
    -16.476  0.1514E+01  0.9399E+01
    -16.463  0.1337E+01  0.9418E+01
    -16.449  0.6208E-01  0.9419E+01
    -16.435  0.9805E-04  0.9419E+01
    -16.421  0.4125E-08  0.9419E+01
    -16.407  0.4339E-14  0.9419E+01
    -16.394  0.6054E-09  0.9419E+01
    -16.380  0.2570E-04  0.9419E+01
    -16.366  0.2847E-01  0.9419E+01
    -16.352  0.1037E+01  0.9433E+01
    -16.338  0.2711E+01  0.9471E+01
    -16.324  0.2741E+01  0.9509E+01
    -16.311  0.4191E+01  0.9567E+01
    -16.297  0.1298E+01  0.9585E+01
    -16.283  0.4403E-01  0.9585E+01
    -16.269  0.9655E+00  0.9598E+01
    -16.255  0.2063E+01  0.9627E+01
    -16.242  0.5491E+01  0.9703E+01
    -16.228  0.1061E+02  0.9849E+01
    -16.214  0.4573E+01  0.9912E+01
    -16.200  0.3590E+00  0.9917E+01
    -16.186  0.1962E+01  0.9945E+01
    -16.173  0.5858E+01  0.1003E+02
    -16.159  0.1711E+01  0.1005E+02
    -16.145  0.5275E+01  0.1012E+02
    -16.131  0.3733E+01  0.1017E+02
    -16.117  0.4033E+01  0.1023E+02
    -16.103  0.1421E+01  0.1025E+02
    -16.090  0.5377E-01  0.1025E+02
    -16.076  0.1577E+01  0.1027E+02
    -16.062  0.3856E+01  0.1032E+02
    -16.048  0.5463E+00  0.1033E+02
    -16.034  0.3059E-02  0.1033E+02
    -16.021  0.5754E-06  0.1033E+02
    -16.007  0.9941E-03  0.1033E+02
    -15.993  0.3047E+00  0.1034E+02
    -15.979  0.3447E+01  0.1038E+02
    -15.965  0.2205E+01  0.1041E+02
    -15.952  0.1203E+01  0.1043E+02
    -15.938  0.4008E+01  0.1049E+02
    -15.924  0.8713E+00  0.1050E+02
    -15.910  0.1379E+01  0.1052E+02
    -15.896  0.3953E+01  0.1057E+02
    -15.883  0.9955E+00  0.1059E+02
    -15.869  0.1979E+01  0.1061E+02
    -15.855  0.6877E+00  0.1062E+02
    -15.841  0.1097E-01  0.1062E+02
    -15.827  0.5755E-01  0.1062E+02
    -15.813  0.2039E+01  0.1065E+02
    -15.800  0.3747E+01  0.1070E+02
    -15.786  0.3371E+01  0.1075E+02
    -15.772  0.2686E+01  0.1079E+02
    -15.758  0.1267E+00  0.1079E+02
    -15.744  0.3291E+00  0.1079E+02
    -15.731  0.3508E+01  0.1084E+02
    -15.717  0.2112E+01  0.1087E+02
    -15.703  0.2965E+00  0.1088E+02
    -15.689  0.3225E+01  0.1092E+02
    -15.675  0.2458E+01  0.1095E+02
    -15.662  0.9995E-01  0.1096E+02
    -15.648  0.4075E+00  0.1096E+02
    -15.634  0.2037E+01  0.1099E+02
    -15.620  0.2133E+01  0.1102E+02
    -15.606  0.3876E+01  0.1107E+02
    -15.592  0.5594E+00  0.1108E+02
    -15.579  0.3207E-02  0.1108E+02
    -15.565  0.5222E-06  0.1108E+02
    -15.551  0.1097E-05  0.1108E+02
    -15.537  0.3008E-02  0.1108E+02
    -15.523  0.2569E+00  0.1108E+02
    -15.510  0.1001E+01  0.1110E+02
    -15.496  0.3488E+00  0.1110E+02
    -15.482  0.2577E+01  0.1114E+02
    -15.468  0.3898E+01  0.1119E+02
    -15.454  0.2150E+01  0.1122E+02
    -15.441  0.3977E+00  0.1123E+02
    -15.427  0.1801E+01  0.1125E+02
    -15.413  0.4365E+01  0.1131E+02
    -15.399  0.2629E+01  0.1135E+02
    -15.385  0.1142E+00  0.1135E+02
    -15.372  0.2581E+00  0.1135E+02
    -15.358  0.3310E+01  0.1140E+02
    -15.344  0.2359E+01  0.1143E+02
    -15.330  0.1176E+00  0.1143E+02
    -15.316  0.2303E+01  0.1146E+02
    -15.302  0.7982E+01  0.1158E+02
    -15.289  0.2345E+01  0.1161E+02
    -15.275  0.2569E+01  0.1164E+02
    -15.261  0.2377E+01  0.1168E+02
    -15.247  0.4270E+00  0.1168E+02
    -15.233  0.3782E-02  0.1168E+02
    -15.220  0.2424E-01  0.1168E+02
    -15.206  0.9541E+00  0.1170E+02
    -15.192  0.1827E+01  0.1172E+02
    -15.178  0.2001E+00  0.1172E+02
    -15.164  0.1668E+00  0.1173E+02
    -15.151  0.2920E+01  0.1177E+02
    -15.137  0.2790E+01  0.1180E+02
    -15.123  0.1139E+01  0.1182E+02
    -15.109  0.7423E+01  0.1192E+02
    -15.095  0.3513E+01  0.1197E+02
    -15.081  0.3953E+00  0.1198E+02
    -15.068  0.1958E+01  0.1200E+02
    -15.054  0.7283E+00  0.1201E+02
    -15.040  0.1258E-01  0.1201E+02
    -15.026  0.7586E-01  0.1201E+02
    -15.012  0.2485E+01  0.1205E+02
    -14.999  0.6627E+01  0.1214E+02
    -14.985  0.2741E+01  0.1218E+02
    -14.971  0.9691E-01  0.1218E+02
    -14.957  0.1254E-03  0.1218E+02
    -14.943  0.4343E-08  0.1218E+02
    -14.930  0.2435E-05  0.1218E+02
    -14.916  0.9554E-02  0.1218E+02
    -14.902  0.1145E+01  0.1220E+02
    -14.888  0.5954E+01  0.1228E+02
    -14.874  0.1889E+01  0.1230E+02
    -14.860  0.7685E+00  0.1231E+02
    -14.847  0.3990E+01  0.1237E+02
    -14.833  0.1270E+01  0.1239E+02
    -14.819  0.7195E+00  0.1240E+02
    -14.805  0.2808E+01  0.1244E+02
    -14.791  0.5839E+01  0.1252E+02
    -14.778  0.3285E+01  0.1256E+02
    -14.764  0.4045E+01  0.1262E+02
    -14.750  0.2064E+01  0.1265E+02
    -14.736  0.2462E+01  0.1268E+02
    -14.722  0.4091E+01  0.1274E+02
    -14.709  0.1714E+01  0.1276E+02
    -14.695  0.3691E-01  0.1276E+02
    -14.681  0.4871E-02  0.1276E+02
    -14.667  0.4835E+00  0.1277E+02
    -14.653  0.2764E+01  0.1281E+02
    -14.640  0.4493E+01  0.1287E+02
    -14.626  0.1265E+01  0.1289E+02
    -14.612  0.9746E+00  0.1290E+02
    -14.598  0.4036E+01  0.1295E+02
    -14.584  0.1154E+01  0.1297E+02
    -14.570  0.1741E+01  0.1299E+02
    -14.557  0.1087E+01  0.1301E+02
    -14.543  0.6113E-01  0.1301E+02
    -14.529  0.2054E+01  0.1304E+02
    -14.515  0.7894E+01  0.1315E+02
    -14.501  0.2039E+01  0.1318E+02
    -14.488  0.8567E+00  0.1319E+02
    -14.474  0.3978E+01  0.1324E+02
    -14.460  0.3842E+01  0.1330E+02
    -14.446  0.3532E+00  0.1330E+02
    -14.432  0.1302E-02  0.1330E+02
    -14.419  0.9696E-06  0.1330E+02
    -14.405  0.4343E-02  0.1330E+02
    -14.391  0.6497E+00  0.1331E+02
    -14.377  0.4106E+01  0.1337E+02
    -14.363  0.4331E+01  0.1343E+02
    -14.349  0.2808E+01  0.1347E+02
    -14.336  0.1212E+01  0.1348E+02
    -14.322  0.4043E+01  0.1354E+02
    -14.308  0.1622E+01  0.1356E+02
    -14.294  0.1964E+01  0.1359E+02
    -14.280  0.3241E+00  0.1359E+02
    -14.267  0.8931E+00  0.1360E+02
    -14.253  0.1869E+01  0.1363E+02
    -14.239  0.2252E+00  0.1363E+02
    -14.225  0.8516E-01  0.1363E+02
    -14.211  0.3731E+01  0.1369E+02
    -14.198  0.1138E+02  0.1384E+02
    -14.184  0.2993E+01  0.1388E+02
    -14.170  0.3055E+01  0.1393E+02
    -14.156  0.3102E+01  0.1397E+02
    -14.142  0.3806E+01  0.1402E+02
    -14.129  0.1927E+01  0.1405E+02
    -14.115  0.2051E+01  0.1408E+02
    -14.101  0.3587E+01  0.1413E+02
    -14.087  0.3649E+00  0.1413E+02
    -14.073  0.2334E+00  0.1413E+02
    -14.059  0.4201E+01  0.1419E+02
    -14.046  0.4714E+01  0.1426E+02
    -14.032  0.4091E+01  0.1431E+02
    -14.018  0.3817E+01  0.1437E+02
    -14.004  0.9614E+00  0.1438E+02
    -13.990  0.2678E-01  0.1438E+02
    -13.977  0.8475E+00  0.1439E+02
    -13.963  0.6820E+01  0.1449E+02
    -13.949  0.5267E+01  0.1456E+02
    -13.935  0.6098E+01  0.1464E+02
    -13.921  0.1977E+01  0.1467E+02
    -13.908  0.3119E-01  0.1467E+02
    -13.894  0.1568E-04  0.1467E+02
    -13.880  0.9971E-05  0.1467E+02
    -13.866  0.2866E-01  0.1467E+02
    -13.852  0.2540E+01  0.1471E+02
    -13.838  0.1005E+02  0.1485E+02
    -13.825  0.2492E+01  0.1488E+02
    -13.811  0.2894E+01  0.1492E+02
    -13.797  0.6752E+01  0.1501E+02
    -13.783  0.2243E+01  0.1504E+02
    -13.769  0.6027E-01  0.1504E+02
    -13.756  0.9010E-01  0.1505E+02
    -13.742  0.3665E+01  0.1510E+02
    -13.728  0.7393E+01  0.1520E+02
    -13.714  0.8790E+00  0.1521E+02
    -13.700  0.8183E+00  0.1522E+02
    -13.687  0.5779E+01  0.1530E+02
    -13.673  0.5178E+01  0.1537E+02
    -13.659  0.3131E+01  0.1542E+02
    -13.645  0.2327E+01  0.1545E+02
    -13.631  0.9413E+01  0.1558E+02
    -13.617  0.6092E+01  0.1566E+02
    -13.604  0.4741E+00  0.1567E+02
    -13.590  0.2791E+01  0.1571E+02
    -13.576  0.2917E+01  0.1575E+02
    -13.562  0.1767E+00  0.1575E+02
    -13.548  0.7429E+00  0.1576E+02
    -13.535  0.2703E+01  0.1580E+02
    -13.521  0.6090E+01  0.1588E+02
    -13.507  0.6840E+01  0.1598E+02
    -13.493  0.5128E+01  0.1605E+02
    -13.479  0.2536E+01  0.1608E+02
    -13.466  0.2020E+01  0.1611E+02
    -13.452  0.4118E+01  0.1617E+02
    -13.438  0.6852E+01  0.1626E+02
    -13.424  0.2151E+01  0.1629E+02
    -13.410  0.1760E+01  0.1632E+02
    -13.397  0.1106E+01  0.1633E+02
    -13.383  0.7842E+00  0.1634E+02
    -13.369  0.8009E+01  0.1645E+02
    -13.355  0.6467E+01  0.1654E+02
    -13.341  0.4745E+01  0.1661E+02
    -13.327  0.3691E+01  0.1666E+02
    -13.314  0.3854E+00  0.1666E+02
    -13.300  0.2878E-02  0.1666E+02
    -13.286  0.5325E-01  0.1667E+02
    -13.272  0.3416E+00  0.1667E+02
    -13.258  0.1239E+01  0.1669E+02
    -13.245  0.5628E+01  0.1676E+02
    -13.231  0.2626E+01  0.1680E+02
    -13.217  0.4883E+01  0.1687E+02
    -13.203  0.3601E+01  0.1692E+02
    -13.189  0.2919E+00  0.1692E+02
    -13.176  0.1912E+01  0.1695E+02
    -13.162  0.3139E+01  0.1699E+02
    -13.148  0.8233E+00  0.1700E+02
    -13.134  0.1262E+00  0.1701E+02
    -13.120  0.1596E+01  0.1703E+02
    -13.106  0.1465E+01  0.1705E+02
    -13.093  0.8345E+00  0.1706E+02
    -13.079  0.3013E+01  0.1710E+02
    -13.065  0.4982E+01  0.1717E+02
    -13.051  0.1016E+01  0.1718E+02
    -13.037  0.8208E+00  0.1719E+02
    -13.024  0.4013E+01  0.1725E+02
    -13.010  0.1174E+01  0.1727E+02
    -12.996  0.1524E-01  0.1727E+02
    -12.982  0.5946E-05  0.1727E+02
    -12.968  0.8320E-10  0.1727E+02
    -12.955  0.3121E-05  0.1727E+02
    -12.941  0.1015E-01  0.1727E+02
    -12.927  0.9763E+00  0.1728E+02
    -12.913  0.4036E+01  0.1734E+02
    -12.899  0.9802E+00  0.1735E+02
    -12.886  0.1024E-01  0.1735E+02
    -12.872  0.3163E-05  0.1735E+02
    -12.858  0.2469E-10  0.1735E+02
    -12.844  0.1076E-09  0.1735E+02
    -12.830  0.9171E-05  0.1735E+02
    -12.816  0.1998E-01  0.1735E+02
    -12.803  0.1347E+01  0.1737E+02
    -12.789  0.5417E+01  0.1744E+02
    -12.775  0.4783E+01  0.1751E+02
    -12.761  0.2384E+01  0.1754E+02
    -12.747  0.1050E+01  0.1756E+02
    -12.734  0.3083E-01  0.1756E+02
    -12.720  0.2942E-04  0.1756E+02
    -12.706  0.1006E-08  0.1756E+02
    -12.692  0.1786E-04  0.1756E+02
    -12.678  0.3009E-01  0.1756E+02
    -12.665  0.1575E+01  0.1758E+02
    -12.651  0.3857E+01  0.1763E+02
    -12.637  0.5476E+00  0.1764E+02
    -12.623  0.3084E-02  0.1764E+02
    -12.609  0.2013E-01  0.1764E+02
    -12.595  0.1288E+01  0.1766E+02
    -12.582  0.3953E+01  0.1771E+02
    -12.568  0.7458E+00  0.1772E+02
    -12.554  0.6189E-02  0.1772E+02
    -12.540  0.1589E-05  0.1772E+02
    -12.526  0.2689E-09  0.1772E+02
    -12.513  0.1447E-04  0.1772E+02
    -12.499  0.2277E-01  0.1772E+02
    -12.485  0.1421E+01  0.1774E+02
    -12.471  0.5726E+01  0.1782E+02
    -12.457  0.1818E+01  0.1785E+02
    -12.444  0.1873E+00  0.1785E+02
    -12.430  0.3102E+01  0.1789E+02
    -12.416  0.5104E+01  0.1796E+02
    -12.402  0.1359E+01  0.1798E+02
    -12.388  0.1976E+01  0.1801E+02
    -12.375  0.3267E+00  0.1801E+02
    -12.361  0.2191E-02  0.1801E+02
    -12.347  0.4216E-06  0.1801E+02
    -12.333  0.4429E-11  0.1801E+02
    -12.319  0.4779E-06  0.1801E+02
    -12.305  0.2379E-02  0.1801E+02
    -12.292  0.3464E+00  0.1802E+02
    -12.278  0.2579E+01  0.1805E+02
    -12.264  0.4007E+01  0.1811E+02
    -12.250  0.2000E+01  0.1814E+02
    -12.236  0.1309E+01  0.1816E+02
    -12.223  0.4047E+01  0.1821E+02
    -12.209  0.2681E+01  0.1825E+02
    -12.195  0.5289E+01  0.1832E+02
    -12.181  0.2734E+01  0.1836E+02
    -12.167  0.5190E+01  0.1843E+02
    -12.154  0.3496E+01  0.1848E+02
    -12.140  0.4652E+01  0.1854E+02
    -12.126  0.3287E+01  0.1859E+02
    -12.112  0.1671E+01  0.1861E+02
    -12.098  0.1674E+01  0.1863E+02
    -12.084  0.4969E+00  0.1864E+02
    -12.071  0.3803E+01  0.1869E+02
    -12.057  0.4761E+01  0.1876E+02
    -12.043  0.6741E+01  0.1885E+02
    -12.029  0.4076E+01  0.1891E+02
    -12.015  0.1910E+01  0.1894E+02
    -12.002  0.3988E+01  0.1899E+02
    -11.988  0.1456E+01  0.1901E+02
    -11.974  0.2736E+01  0.1905E+02
    -11.960  0.6733E+01  0.1914E+02
    -11.946  0.4696E+01  0.1921E+02
    -11.933  0.9951E+00  0.1922E+02
    -11.919  0.3054E+01  0.1926E+02
    -11.905  0.4960E+01  0.1933E+02
    -11.891  0.5768E+01  0.1941E+02
    -11.877  0.1069E+01  0.1943E+02
    -11.863  0.3095E-01  0.1943E+02
    -11.850  0.1352E+01  0.1944E+02
    -11.836  0.3958E+01  0.1950E+02
    -11.822  0.7074E+00  0.1951E+02
    -11.808  0.1866E+01  0.1953E+02
    -11.794  0.9014E+01  0.1966E+02
    -11.781  0.6624E+01  0.1975E+02
    -11.767  0.5074E+00  0.1976E+02
    -11.753  0.2042E-02  0.1976E+02
    -11.739  0.1365E+00  0.1976E+02
    -11.725  0.4346E+01  0.1982E+02
    -11.712  0.8403E+01  0.1994E+02
    -11.698  0.8542E+01  0.2005E+02
    -11.684  0.2671E+01  0.2009E+02
    -11.670  0.2404E+01  0.2012E+02
    -11.656  0.3893E+01  0.2018E+02
    -11.643  0.4149E+01  0.2023E+02
    -11.629  0.1506E+01  0.2026E+02
    -11.615  0.2703E-01  0.2026E+02
    -11.601  0.1607E-01  0.2026E+02
    -11.587  0.1202E+01  0.2027E+02
    -11.573  0.4006E+01  0.2033E+02
    -11.560  0.7826E+00  0.2034E+02
    -11.546  0.6351E-02  0.2034E+02
    -11.532  0.1497E-05  0.2034E+02
    -11.518  0.8860E-11  0.2034E+02
    -11.504  0.0000E+00  0.2034E+02
    -11.491  0.2704E-13  0.2034E+02
    -11.477  0.1795E-07  0.2034E+02
    -11.463  0.3053E-03  0.2034E+02
    -11.449  0.1496E+00  0.2034E+02
    -11.435  0.2772E+01  0.2038E+02
    -11.422  0.3986E+01  0.2043E+02
    -11.408  0.6113E+01  0.2052E+02
    -11.394  0.2205E+01  0.2055E+02
    -11.380  0.5150E+01  0.2062E+02
    -11.366  0.7495E+01  0.2072E+02
    -11.352  0.4412E+01  0.2078E+02
    -11.339  0.7811E+00  0.2080E+02
    -11.325  0.1700E-01  0.2080E+02
    -11.311  0.1225E+01  0.2081E+02
    -11.297  0.9214E+01  0.2094E+02
    -11.283  0.8442E+01  0.2106E+02
    -11.270  0.4307E+01  0.2112E+02
    -11.256  0.3616E+01  0.2117E+02
    -11.242  0.2220E+01  0.2120E+02
    -11.228  0.3473E+01  0.2124E+02
    -11.214  0.5582E+00  0.2125E+02
    -11.201  0.4989E-02  0.2125E+02
    -11.187  0.1452E-05  0.2125E+02
    -11.173  0.1090E-10  0.2125E+02
    -11.159  0.0000E+00  0.2125E+02
    -11.145  0.0000E+00  0.2125E+02
    -11.132  0.3338E-15  0.2125E+02
    -11.118  0.5222E-09  0.2125E+02
    -11.104  0.2836E-04  0.2125E+02
    -11.090  0.3985E-01  0.2125E+02
    -11.076  0.1766E+01  0.2128E+02
    -11.062  0.3748E+01  0.2133E+02
    -11.049  0.4572E+00  0.2134E+02
    -11.035  0.7802E-02  0.2134E+02
    -11.021  0.7401E+00  0.2135E+02
    -11.007  0.4174E+01  0.2140E+02
    -10.993  0.3388E+01  0.2145E+02
    -10.980  0.6442E+01  0.2154E+02
    -10.966  0.5873E+01  0.2162E+02
    -10.952  0.4224E+00  0.2163E+02
    -10.938  0.1328E-02  0.2163E+02
    -10.924  0.4588E-02  0.2163E+02
    -10.911  0.4657E+00  0.2163E+02
    -10.897  0.2043E+01  0.2166E+02
    -10.883  0.2093E+01  0.2169E+02
    -10.869  0.7015E+01  0.2179E+02
    -10.855  0.9507E+01  0.2192E+02
    -10.841  0.5570E+01  0.2200E+02
    -10.828  0.3468E+01  0.2204E+02
    -10.814  0.8123E+01  0.2216E+02
    -10.800  0.6043E+01  0.2224E+02
    -10.786  0.1160E+02  0.2240E+02
    -10.772  0.6867E+01  0.2249E+02
    -10.759  0.2784E+01  0.2253E+02
    -10.745  0.5745E+00  0.2254E+02
    -10.731  0.1241E+01  0.2256E+02
    -10.717  0.4565E+01  0.2262E+02
    -10.703  0.1180E+01  0.2264E+02
    -10.690  0.3026E+00  0.2264E+02
    -10.676  0.4142E+01  0.2270E+02
    -10.662  0.4291E+01  0.2276E+02
    -10.648  0.2966E+00  0.2276E+02
    -10.634  0.1266E-01  0.2276E+02
    -10.620  0.7128E+00  0.2277E+02
    -10.607  0.2228E+01  0.2280E+02
    -10.593  0.3106E+01  0.2284E+02
    -10.579  0.8667E+01  0.2296E+02
    -10.565  0.1113E+02  0.2312E+02
    -10.551  0.8257E+01  0.2323E+02
    -10.538  0.7980E+01  0.2334E+02
    -10.524  0.2825E+01  0.2338E+02
    -10.510  0.2058E+00  0.2338E+02
    -10.496  0.1534E+01  0.2341E+02
    -10.482  0.5901E+01  0.2349E+02
    -10.469  0.1549E+01  0.2351E+02
    -10.455  0.5407E+00  0.2352E+02
    -10.441  0.2017E+01  0.2354E+02
    -10.427  0.4588E+00  0.2355E+02
    -10.413  0.4455E-02  0.2355E+02
    -10.400  0.2763E-01  0.2355E+02
    -10.386  0.1905E+01  0.2358E+02
    -10.372  0.5973E+01  0.2366E+02
    -10.358  0.1105E+01  0.2367E+02
    -10.344  0.8542E-02  0.2367E+02
    -10.330  0.2865E-01  0.2368E+02
    -10.317  0.1018E+01  0.2369E+02
    -10.303  0.1891E+01  0.2372E+02
    -10.289  0.2071E+01  0.2374E+02
    -10.275  0.3627E+01  0.2379E+02
    -10.261  0.5370E+01  0.2387E+02
    -10.248  0.6036E+01  0.2395E+02
    -10.234  0.2036E+01  0.2398E+02
    -10.220  0.5757E+01  0.2406E+02
    -10.206  0.7156E+01  0.2416E+02
    -10.192  0.5892E+01  0.2424E+02
    -10.179  0.1429E+02  0.2444E+02
    -10.165  0.1487E+02  0.2464E+02
    -10.151  0.2091E+01  0.2467E+02
    -10.137  0.3286E+00  0.2468E+02
    -10.123  0.4015E+01  0.2473E+02
    -10.109  0.6753E+01  0.2482E+02
    -10.096  0.2925E+01  0.2486E+02
    -10.082  0.1001E+01  0.2488E+02
    -10.068  0.2894E+00  0.2488E+02
    -10.054  0.3341E+01  0.2493E+02
    -10.040  0.3235E+01  0.2497E+02
    -10.027  0.1954E+01  0.2500E+02
    -10.013  0.2256E+00  0.2500E+02
     -9.999  0.1050E-02  0.2500E+02
     -9.985  0.1372E-06  0.2500E+02
     -9.971  0.4867E-08  0.2500E+02
     -9.958  0.1360E-03  0.2500E+02
     -9.944  0.1007E+00  0.2500E+02
     -9.930  0.2494E+01  0.2504E+02
     -9.916  0.3193E+01  0.2508E+02
     -9.902  0.2858E+00  0.2509E+02
     -9.889  0.2016E+01  0.2512E+02
     -9.875  0.6880E+01  0.2521E+02
     -9.861  0.5394E+01  0.2528E+02
     -9.847  0.2024E+01  0.2531E+02
     -9.833  0.4421E+01  0.2537E+02
     -9.819  0.5473E+01  0.2545E+02
     -9.806  0.9896E+01  0.2559E+02
     -9.792  0.9131E+01  0.2571E+02
     -9.778  0.5374E+01  0.2579E+02
     -9.764  0.1649E+01  0.2581E+02
     -9.750  0.5938E+01  0.2589E+02
     -9.737  0.3603E+01  0.2594E+02
     -9.723  0.5783E+01  0.2602E+02
     -9.709  0.1484E+01  0.2604E+02
     -9.695  0.3854E+00  0.2605E+02
     -9.681  0.3718E+01  0.2610E+02
     -9.668  0.3701E+01  0.2615E+02
     -9.654  0.1199E+01  0.2617E+02
     -9.640  0.8371E-01  0.2617E+02
     -9.626  0.1844E+01  0.2619E+02
     -9.612  0.3700E+01  0.2624E+02
     -9.598  0.8856E+00  0.2626E+02
     -9.585  0.4115E+01  0.2631E+02
     -9.571  0.5336E+01  0.2639E+02
     -9.557  0.2057E+01  0.2641E+02
     -9.543  0.5819E-01  0.2642E+02
     -9.529  0.3199E+00  0.2642E+02
     -9.516  0.4724E+01  0.2648E+02
     -9.502  0.7404E+01  0.2659E+02
     -9.488  0.8935E+01  0.2671E+02
     -9.474  0.2616E+01  0.2675E+02
     -9.460  0.1214E+01  0.2676E+02
     -9.447  0.6934E+01  0.2686E+02
     -9.433  0.6570E+01  0.2695E+02
     -9.419  0.1344E+01  0.2697E+02
     -9.405  0.3366E+01  0.2701E+02
     -9.391  0.2094E+01  0.2704E+02
     -9.378  0.1465E+01  0.2706E+02
     -9.364  0.3999E+01  0.2712E+02
     -9.350  0.2569E+01  0.2715E+02
     -9.336  0.5105E+01  0.2723E+02
     -9.322  0.3261E+01  0.2727E+02
     -9.308  0.5523E+01  0.2735E+02
     -9.295  0.4669E+01  0.2741E+02
     -9.281  0.5577E+00  0.2742E+02
     -9.267  0.8989E+00  0.2743E+02
     -9.253  0.4226E+01  0.2749E+02
     -9.239  0.6145E+01  0.2757E+02
     -9.226  0.5762E+01  0.2765E+02
     -9.212  0.2704E+01  0.2769E+02
     -9.198  0.5382E+01  0.2777E+02
     -9.184  0.1217E+02  0.2793E+02
     -9.170  0.7417E+01  0.2804E+02
     -9.157  0.4317E+00  0.2804E+02
     -9.143  0.2330E+01  0.2807E+02
     -9.129  0.5719E+01  0.2815E+02
     -9.115  0.9647E+00  0.2817E+02
     -9.101  0.1243E+01  0.2818E+02
     -9.087  0.1799E+01  0.2821E+02
     -9.074  0.5002E+01  0.2828E+02
     -9.060  0.6467E+01  0.2837E+02
     -9.046  0.4884E+00  0.2837E+02
     -9.032  0.9919E+00  0.2839E+02
     -9.018  0.4400E+01  0.2845E+02
     -9.005  0.4642E+01  0.2851E+02
     -8.991  0.3507E+01  0.2856E+02
     -8.977  0.1726E+01  0.2858E+02
     -8.963  0.4665E+01  0.2865E+02
     -8.949  0.5986E+01  0.2873E+02
     -8.936  0.7533E+01  0.2884E+02
     -8.922  0.1005E+02  0.2897E+02
     -8.908  0.1212E+02  0.2914E+02
     -8.894  0.7011E+01  0.2924E+02
     -8.880  0.1321E+01  0.2926E+02
     -8.866  0.5220E+01  0.2933E+02
     -8.853  0.6833E+01  0.2942E+02
     -8.839  0.2106E+01  0.2945E+02
     -8.825  0.5159E-01  0.2945E+02
     -8.811  0.6435E-02  0.2945E+02
     -8.797  0.8078E+00  0.2946E+02
     -8.784  0.5424E+01  0.2954E+02
     -8.770  0.5136E+01  0.2961E+02
     -8.756  0.1393E+01  0.2963E+02
     -8.742  0.5670E+01  0.2971E+02
     -8.728  0.4598E+01  0.2977E+02
     -8.715  0.7027E+01  0.2987E+02
     -8.701  0.6243E+01  0.2995E+02
     -8.687  0.5612E+01  0.3003E+02
     -8.673  0.4714E+01  0.3010E+02
     -8.659  0.9990E+01  0.3024E+02
     -8.646  0.7728E+01  0.3034E+02
     -8.632  0.1732E+01  0.3037E+02
     -8.618  0.7999E-01  0.3037E+02
     -8.604  0.1352E+01  0.3039E+02
     -8.590  0.5812E+01  0.3047E+02
     -8.576  0.5336E+01  0.3054E+02
     -8.563  0.4489E+01  0.3060E+02
     -8.549  0.1969E+01  0.3063E+02
     -8.535  0.3596E+01  0.3068E+02
     -8.521  0.6147E+01  0.3076E+02
     -8.507  0.6385E+01  0.3085E+02
     -8.494  0.3057E+01  0.3089E+02
     -8.480  0.1428E+01  0.3091E+02
     -8.466  0.2026E+01  0.3094E+02
     -8.452  0.7702E+01  0.3105E+02
     -8.438  0.7540E+01  0.3115E+02
     -8.425  0.8010E+01  0.3126E+02
     -8.411  0.8696E+01  0.3138E+02
     -8.397  0.2196E+01  0.3141E+02
     -8.383  0.3451E+01  0.3146E+02
     -8.369  0.1060E+02  0.3161E+02
     -8.355  0.9405E+01  0.3174E+02
     -8.342  0.5721E+01  0.3182E+02
     -8.328  0.7797E+00  0.3183E+02
     -8.314  0.5825E-02  0.3183E+02
     -8.300  0.2081E-04  0.3183E+02
     -8.286  0.3334E-01  0.3183E+02
     -8.273  0.2025E+01  0.3186E+02
     -8.259  0.7821E+01  0.3196E+02
     -8.245  0.5435E+01  0.3204E+02
     -8.231  0.4845E+01  0.3211E+02
     -8.217  0.1131E+01  0.3212E+02
     -8.204  0.2617E+01  0.3216E+02
     -8.190  0.4857E+01  0.3222E+02
     -8.176  0.2719E+01  0.3226E+02
     -8.162  0.2988E+01  0.3230E+02
     -8.148  0.5092E+01  0.3237E+02
     -8.135  0.1223E+02  0.3254E+02
     -8.121  0.1293E+02  0.3272E+02
     -8.107  0.1564E+02  0.3294E+02
     -8.093  0.7978E+01  0.3305E+02
     -8.079  0.2615E+01  0.3308E+02
     -8.065  0.7560E+00  0.3309E+02
     -8.052  0.1627E+01  0.3312E+02
     -8.038  0.6195E+01  0.3320E+02
     -8.024  0.3914E+01  0.3326E+02
     -8.010  0.2724E+00  0.3326E+02
     -7.996  0.8476E-01  0.3326E+02
     -7.983  0.3146E+01  0.3330E+02
     -7.969  0.8832E+01  0.3343E+02
     -7.955  0.4980E+01  0.3349E+02
     -7.941  0.3659E+01  0.3355E+02
     -7.927  0.1480E+01  0.3357E+02
     -7.914  0.6116E+01  0.3365E+02
     -7.900  0.4471E+01  0.3371E+02
     -7.886  0.3081E+01  0.3375E+02
     -7.872  0.9668E+01  0.3389E+02
     -7.858  0.5883E+01  0.3397E+02
     -7.844  0.2445E+01  0.3400E+02
     -7.831  0.1410E+01  0.3402E+02
     -7.817  0.3062E+01  0.3406E+02
     -7.803  0.4550E+01  0.3413E+02
     -7.789  0.4605E+01  0.3419E+02
     -7.775  0.4983E+01  0.3426E+02
     -7.762  0.3422E+01  0.3431E+02
     -7.748  0.3814E+01  0.3436E+02
     -7.734  0.1863E+01  0.3439E+02
     -7.720  0.6916E+01  0.3448E+02
     -7.706  0.1002E+02  0.3462E+02
     -7.693  0.9319E+01  0.3475E+02
     -7.679  0.6111E+01  0.3483E+02
     -7.665  0.1217E+01  0.3485E+02
     -7.651  0.4225E+01  0.3491E+02
     -7.637  0.2942E+01  0.3495E+02
     -7.623  0.3151E+01  0.3499E+02
     -7.610  0.8551E+01  0.3511E+02
     -7.596  0.7285E+01  0.3521E+02
     -7.582  0.5150E+01  0.3528E+02
     -7.568  0.1478E+01  0.3530E+02
     -7.554  0.1685E+01  0.3533E+02
     -7.541  0.2528E+01  0.3536E+02
     -7.527  0.5205E+01  0.3543E+02
     -7.513  0.2628E+01  0.3547E+02
     -7.499  0.3958E+01  0.3552E+02
     -7.485  0.5984E+01  0.3561E+02
     -7.472  0.3504E+01  0.3565E+02
     -7.458  0.3080E+01  0.3570E+02
     -7.444  0.3965E+01  0.3575E+02
     -7.430  0.4653E+01  0.3582E+02
     -7.416  0.1437E+02  0.3601E+02
     -7.403  0.1022E+02  0.3616E+02
     -7.389  0.1922E+02  0.3642E+02
     -7.375  0.1014E+02  0.3656E+02
     -7.361  0.7771E+01  0.3667E+02
     -7.347  0.8799E+01  0.3679E+02
     -7.333  0.5256E+01  0.3686E+02
     -7.320  0.7328E+01  0.3696E+02
     -7.306  0.5371E+01  0.3704E+02
     -7.292  0.7844E+00  0.3705E+02
     -7.278  0.3541E+01  0.3710E+02
     -7.264  0.6027E+01  0.3718E+02
     -7.251  0.8295E+01  0.3730E+02
     -7.237  0.3330E+01  0.3734E+02
     -7.223  0.5144E+01  0.3741E+02
     -7.209  0.3654E+01  0.3746E+02
     -7.195  0.3662E+01  0.3751E+02
     -7.182  0.2729E+01  0.3755E+02
     -7.168  0.4179E+01  0.3761E+02
     -7.154  0.3348E+01  0.3766E+02
     -7.140  0.3401E+01  0.3770E+02
     -7.126  0.5063E+01  0.3777E+02
     -7.112  0.1437E+01  0.3779E+02
     -7.099  0.1670E+00  0.3779E+02
     -7.085  0.2807E+01  0.3783E+02
     -7.071  0.3465E+01  0.3788E+02
     -7.057  0.5495E+01  0.3796E+02
     -7.043  0.3030E+01  0.3800E+02
     -7.030  0.1244E+00  0.3800E+02
     -7.016  0.2303E+01  0.3803E+02
     -7.002  0.8912E+01  0.3816E+02
     -6.988  0.5818E+01  0.3824E+02
     -6.974  0.1845E+01  0.3826E+02
     -6.961  0.4463E+01  0.3832E+02
     -6.947  0.5525E+01  0.3840E+02
     -6.933  0.3934E+01  0.3845E+02
     -6.919  0.1071E+01  0.3847E+02
     -6.905  0.5092E+01  0.3854E+02
     -6.892  0.2924E+01  0.3858E+02
     -6.878  0.4683E+00  0.3859E+02
     -6.864  0.2158E+01  0.3862E+02
     -6.850  0.4880E+01  0.3868E+02
     -6.836  0.4675E+01  0.3875E+02
     -6.822  0.3712E+01  0.3880E+02
     -6.809  0.5485E+01  0.3887E+02
     -6.795  0.2984E+01  0.3892E+02
     -6.781  0.4478E+01  0.3898E+02
     -6.767  0.4220E+01  0.3904E+02
     -6.753  0.2075E+01  0.3906E+02
     -6.740  0.3695E+01  0.3912E+02
     -6.726  0.5454E+00  0.3912E+02
     -6.712  0.3858E+01  0.3918E+02
     -6.698  0.7142E+01  0.3927E+02
     -6.684  0.8987E+00  0.3929E+02
     -6.671  0.5261E-02  0.3929E+02
     -6.657  0.1178E-01  0.3929E+02
     -6.643  0.7102E+00  0.3930E+02
     -6.629  0.1966E+01  0.3932E+02
     -6.615  0.5179E+00  0.3933E+02
     -6.601  0.3438E+01  0.3938E+02
     -6.588  0.8206E+01  0.3949E+02
     -6.574  0.1032E+02  0.3963E+02
     -6.560  0.7440E+01  0.3974E+02
     -6.546  0.6290E+01  0.3982E+02
     -6.532  0.4746E+01  0.3989E+02
     -6.519  0.1427E+01  0.3991E+02
     -6.505  0.2057E+00  0.3991E+02
     -6.491  0.2312E+01  0.3994E+02
     -6.477  0.5497E+01  0.4002E+02
     -6.463  0.7102E+01  0.4012E+02
     -6.450  0.5353E+01  0.4019E+02
     -6.436  0.1525E+01  0.4021E+02
     -6.422  0.4037E+01  0.4027E+02
     -6.408  0.1037E+01  0.4028E+02
     -6.394  0.1158E-01  0.4028E+02
     -6.380  0.5854E-04  0.4028E+02
     -6.367  0.4436E-01  0.4028E+02
     -6.353  0.1194E+01  0.4030E+02
     -6.339  0.1671E+01  0.4032E+02
     -6.325  0.1662E+01  0.4035E+02
     -6.311  0.3877E+01  0.4040E+02
     -6.298  0.6606E+00  0.4041E+02
     -6.284  0.2427E+01  0.4044E+02
     -6.270  0.3260E+01  0.4049E+02
     -6.256  0.7470E+00  0.4050E+02
     -6.242  0.2121E+01  0.4053E+02
     -6.229  0.2031E+01  0.4056E+02
     -6.215  0.1295E+01  0.4057E+02
     -6.201  0.2554E+00  0.4058E+02
     -6.187  0.4559E+01  0.4064E+02
     -6.173  0.8944E+01  0.4076E+02
     -6.160  0.2512E+01  0.4080E+02
     -6.146  0.4026E+01  0.4085E+02
     -6.132  0.1644E+01  0.4088E+02
     -6.118  0.8448E+01  0.4099E+02
     -6.104  0.1246E+02  0.4117E+02
     -6.090  0.1451E+02  0.4137E+02
     -6.077  0.5489E+01  0.4144E+02
     -6.063  0.3500E+00  0.4145E+02
     -6.049  0.1198E-02  0.4145E+02
     -6.035  0.2194E-06  0.4145E+02
     -6.021  0.8619E-03  0.4145E+02
     -6.008  0.2036E+00  0.4145E+02
     -5.994  0.1836E+01  0.4147E+02
     -5.980  0.1333E+01  0.4149E+02
     -5.966  0.4269E+01  0.4155E+02
     -5.952  0.7791E+01  0.4166E+02
     -5.939  0.6003E+01  0.4174E+02
     -5.925  0.2893E+01  0.4178E+02
     -5.911  0.4195E+01  0.4184E+02
     -5.897  0.2832E+01  0.4188E+02
     -5.883  0.2513E+01  0.4191E+02
     -5.869  0.4141E+01  0.4197E+02
     -5.856  0.1061E+01  0.4199E+02
     -5.842  0.1981E+00  0.4199E+02
     -5.828  0.3010E+01  0.4203E+02
     -5.814  0.3607E+01  0.4208E+02
     -5.800  0.2160E+01  0.4211E+02
     -5.787  0.3503E+01  0.4216E+02
     -5.773  0.7657E+01  0.4226E+02
     -5.759  0.8669E+01  0.4238E+02
     -5.745  0.1397E+01  0.4240E+02
     -5.731  0.1673E+01  0.4243E+02
     -5.718  0.1170E+01  0.4244E+02
     -5.704  0.5646E+00  0.4245E+02
     -5.690  0.5924E+01  0.4253E+02
     -5.676  0.5275E+01  0.4260E+02
     -5.662  0.2200E+01  0.4264E+02
     -5.649  0.4082E+01  0.4269E+02
     -5.635  0.4078E+01  0.4275E+02
     -5.621  0.1920E+01  0.4277E+02
     -5.607  0.2250E+00  0.4278E+02
     -5.593  0.3633E+01  0.4283E+02
     -5.579  0.8510E+01  0.4295E+02
     -5.566  0.4663E+01  0.4301E+02
     -5.552  0.2426E+01  0.4304E+02
     -5.538  0.3976E+01  0.4310E+02
     -5.524  0.6619E+00  0.4311E+02
     -5.510  0.4499E-02  0.4311E+02
     -5.497  0.4956E-03  0.4311E+02
     -5.483  0.2649E+00  0.4311E+02
     -5.469  0.6515E+01  0.4320E+02
     -5.455  0.1228E+02  0.4337E+02
     -5.441  0.3958E+01  0.4343E+02
     -5.428  0.3648E+01  0.4348E+02
     -5.414  0.3851E+00  0.4348E+02
     -5.400  0.2550E-01  0.4348E+02
     -5.386  0.9498E+00  0.4349E+02
     -5.372  0.1937E+01  0.4352E+02
     -5.358  0.3597E+01  0.4357E+02
     -5.345  0.7560E+01  0.4368E+02
     -5.331  0.6523E+01  0.4377E+02
     -5.317  0.5999E+01  0.4385E+02
     -5.303  0.4665E+00  0.4385E+02
     -5.289  0.1825E-02  0.4385E+02
     -5.276  0.9618E-01  0.4386E+02
     -5.262  0.1536E+01  0.4388E+02
     -5.248  0.1891E+01  0.4390E+02
     -5.234  0.2071E+01  0.4393E+02
     -5.220  0.7628E+00  0.4394E+02
     -5.207  0.3559E+01  0.4399E+02
     -5.193  0.2653E+01  0.4403E+02
     -5.179  0.2571E+01  0.4406E+02
     -5.165  0.5754E+01  0.4414E+02
     -5.151  0.7471E+01  0.4425E+02
     -5.138  0.9084E+01  0.4437E+02
     -5.124  0.1627E+01  0.4439E+02
     -5.110  0.1039E+01  0.4441E+02
     -5.096  0.4513E+01  0.4447E+02
     -5.082  0.2970E+01  0.4451E+02
     -5.068  0.1486E+01  0.4453E+02
     -5.055  0.4041E+01  0.4459E+02
     -5.041  0.9810E+00  0.4460E+02
     -5.027  0.2087E+00  0.4460E+02
     -5.013  0.3207E+01  0.4465E+02
     -4.999  0.6326E+01  0.4474E+02
     -4.986  0.8811E+01  0.4486E+02
     -4.972  0.5064E+01  0.4493E+02
     -4.958  0.7227E+01  0.4503E+02
     -4.944  0.4097E+01  0.4508E+02
     -4.930  0.1903E+01  0.4511E+02
     -4.917  0.4038E+01  0.4517E+02
     -4.903  0.1403E+01  0.4519E+02
     -4.889  0.4016E+01  0.4524E+02
     -4.875  0.1466E+02  0.4544E+02
     -4.861  0.1294E+02  0.4562E+02
     -4.847  0.1269E+01  0.4564E+02
     -4.834  0.9466E+00  0.4565E+02
     -4.820  0.6220E+01  0.4574E+02
     -4.806  0.5925E+01  0.4582E+02
     -4.792  0.3053E+01  0.4586E+02
     -4.778  0.5963E+01  0.4595E+02
     -4.765  0.3227E+01  0.4599E+02
     -4.751  0.6725E+01  0.4608E+02
     -4.737  0.6995E+01  0.4618E+02
     -4.723  0.4764E+01  0.4625E+02
     -4.709  0.1360E+01  0.4626E+02
     -4.696  0.1551E+01  0.4629E+02
     -4.682  0.1665E+01  0.4631E+02
     -4.668  0.4894E+01  0.4638E+02
     -4.654  0.7175E+01  0.4648E+02
     -4.640  0.3895E+01  0.4653E+02
     -4.626  0.8583E+01  0.4665E+02
     -4.613  0.8058E+01  0.4676E+02
     -4.599  0.6679E+01  0.4685E+02
     -4.585  0.2692E+01  0.4689E+02
     -4.571  0.8124E+00  0.4690E+02
     -4.557  0.2103E-01  0.4690E+02
     -4.544  0.7351E+00  0.4691E+02
     -4.530  0.6088E+01  0.4699E+02
     -4.516  0.1052E+02  0.4714E+02
     -4.502  0.6064E+01  0.4722E+02
     -4.488  0.9006E+00  0.4724E+02
     -4.475  0.4276E+01  0.4729E+02
     -4.461  0.7771E+01  0.4740E+02
     -4.447  0.5367E+01  0.4748E+02
     -4.433  0.5224E+01  0.4755E+02
     -4.419  0.1899E+01  0.4757E+02
     -4.406  0.3506E+01  0.4762E+02
     -4.392  0.1105E+02  0.4778E+02
     -4.378  0.1117E+02  0.4793E+02
     -4.364  0.8385E+01  0.4805E+02
     -4.350  0.1041E+02  0.4819E+02
     -4.336  0.1080E+02  0.4834E+02
     -4.323  0.6404E+01  0.4843E+02
     -4.309  0.5172E+01  0.4850E+02
     -4.295  0.3684E+01  0.4855E+02
     -4.281  0.8060E+00  0.4856E+02
     -4.267  0.1597E+00  0.4856E+02
     -4.254  0.2823E+01  0.4860E+02
     -4.240  0.3891E+01  0.4866E+02
     -4.226  0.4318E+01  0.4871E+02
     -4.212  0.4090E+01  0.4877E+02
     -4.198  0.6841E+01  0.4887E+02
     -4.185  0.2016E+01  0.4889E+02
     -4.171  0.2842E+01  0.4893E+02
     -4.157  0.5418E+01  0.4901E+02
     -4.143  0.3867E+01  0.4906E+02
     -4.129  0.7234E+01  0.4916E+02
     -4.115  0.1701E+01  0.4918E+02
     -4.102  0.1621E+01  0.4921E+02
     -4.088  0.1903E+01  0.4923E+02
     -4.074  0.4720E+01  0.4930E+02
     -4.060  0.3362E+01  0.4934E+02
     -4.046  0.3268E+00  0.4935E+02
     -4.033  0.1389E-01  0.4935E+02
     -4.019  0.8807E+00  0.4936E+02
     -4.005  0.4910E+01  0.4943E+02
     -3.991  0.3073E+01  0.4947E+02
     -3.977  0.1430E+00  0.4947E+02
     -3.964  0.2347E-01  0.4947E+02
     -3.950  0.1412E+01  0.4949E+02
     -3.936  0.4030E+01  0.4955E+02
     -3.922  0.3087E+01  0.4959E+02
     -3.908  0.3716E+01  0.4964E+02
     -3.895  0.4010E+01  0.4970E+02
     -3.881  0.1724E+01  0.4972E+02
     -3.867  0.2464E+00  0.4973E+02
     -3.853  0.1848E+01  0.4975E+02
     -3.839  0.1398E+01  0.4977E+02
     -3.825  0.2508E+01  0.4981E+02
     -3.812  0.2535E+01  0.4984E+02
     -3.798  0.9730E+00  0.4985E+02
     -3.784  0.7312E+01  0.4995E+02
     -3.770  0.8550E+01  0.5007E+02
     -3.756  0.6921E+01  0.5017E+02
     -3.743  0.4149E+01  0.5023E+02
     -3.729  0.4873E+01  0.5029E+02
     -3.715  0.4819E+01  0.5036E+02
     -3.701  0.2033E+01  0.5039E+02
     -3.687  0.1539E+01  0.5041E+02
     -3.674  0.2538E+01  0.5044E+02
     -3.660  0.1770E+01  0.5047E+02
     -3.646  0.6481E+00  0.5048E+02
     -3.632  0.5771E+01  0.5056E+02
     -3.618  0.7401E+01  0.5066E+02
     -3.604  0.5249E+01  0.5073E+02
     -3.591  0.2053E+01  0.5076E+02
     -3.577  0.6334E-01  0.5076E+02
     -3.563  0.1774E-02  0.5076E+02
     -3.549  0.2890E+00  0.5077E+02
     -3.535  0.2141E+01  0.5079E+02
     -3.522  0.2587E+01  0.5083E+02
     -3.508  0.1095E+01  0.5085E+02
     -3.494  0.1881E+01  0.5087E+02
     -3.480  0.2402E+01  0.5090E+02
     -3.466  0.2154E+01  0.5093E+02
     -3.453  0.2881E+01  0.5097E+02
     -3.439  0.3739E+01  0.5103E+02
     -3.425  0.3703E+00  0.5103E+02
     -3.411  0.3491E+00  0.5104E+02
     -3.397  0.3608E+01  0.5109E+02
     -3.383  0.3348E+01  0.5113E+02
     -3.370  0.1612E+01  0.5115E+02
     -3.356  0.1231E+00  0.5116E+02
     -3.342  0.9060E+00  0.5117E+02
     -3.328  0.2178E+01  0.5120E+02
     -3.314  0.4251E+01  0.5126E+02
     -3.301  0.5484E+01  0.5133E+02
     -3.287  0.2408E+01  0.5137E+02
     -3.273  0.2583E+01  0.5140E+02
     -3.259  0.8581E+01  0.5152E+02
     -3.245  0.1397E+02  0.5171E+02
     -3.232  0.6746E+01  0.5181E+02
     -3.218  0.3653E+01  0.5186E+02
     -3.204  0.3249E+00  0.5186E+02
     -3.190  0.1120E-02  0.5186E+02
     -3.176  0.2611E-04  0.5186E+02
     -3.163  0.2865E-01  0.5186E+02
     -3.149  0.1018E+01  0.5188E+02
     -3.135  0.2068E+01  0.5190E+02
     -3.121  0.3574E+01  0.5195E+02
     -3.107  0.2579E+01  0.5199E+02
     -3.093  0.2044E+01  0.5202E+02
     -3.080  0.7023E+00  0.5203E+02
     -3.066  0.1147E-01  0.5203E+02
     -3.052  0.5980E-05  0.5203E+02
     -3.038  0.1525E-02  0.5203E+02
     -3.024  0.2733E+00  0.5203E+02
     -3.011  0.2155E+01  0.5206E+02
     -2.997  0.3992E+01  0.5212E+02
     -2.983  0.2507E+01  0.5215E+02
     -2.969  0.1029E+01  0.5217E+02
     -2.955  0.4038E+01  0.5222E+02
     -2.942  0.1418E+01  0.5224E+02
     -2.928  0.2058E+01  0.5227E+02
     -2.914  0.2440E+01  0.5230E+02
     -2.900  0.3710E+01  0.5235E+02
     -2.886  0.4275E+00  0.5236E+02
     -2.872  0.1892E-02  0.5236E+02
     -2.859  0.1268E-05  0.5236E+02
     -2.845  0.5051E-02  0.5236E+02
     -2.831  0.7649E+00  0.5237E+02
     -2.817  0.7004E+01  0.5247E+02
     -2.803  0.8919E+01  0.5259E+02
     -2.790  0.1335E+01  0.5261E+02
     -2.776  0.1118E-01  0.5261E+02
     -2.762  0.3159E-01  0.5261E+02
     -2.748  0.1607E+01  0.5263E+02
     -2.734  0.3840E+01  0.5268E+02
     -2.721  0.5356E+00  0.5269E+02
     -2.707  0.9094E+00  0.5270E+02
     -2.693  0.8261E+01  0.5282E+02
     -2.679  0.7596E+01  0.5292E+02
     -2.665  0.4959E+01  0.5299E+02
     -2.652  0.4390E+01  0.5305E+02
     -2.638  0.9324E+00  0.5307E+02
     -2.624  0.9407E-02  0.5307E+02
     -2.610  0.1026E+00  0.5307E+02
     -2.596  0.1557E+01  0.5309E+02
     -2.582  0.1291E+01  0.5311E+02
     -2.569  0.5924E-01  0.5311E+02
     -2.555  0.4073E+00  0.5311E+02
     -2.541  0.2008E+01  0.5314E+02
     -2.527  0.5818E+00  0.5315E+02
     -2.513  0.2425E+00  0.5315E+02
     -2.500  0.1883E+01  0.5318E+02
     -2.486  0.8698E+00  0.5319E+02
     -2.472  0.4257E+00  0.5320E+02
     -2.458  0.4657E+01  0.5326E+02
     -2.444  0.3967E+01  0.5332E+02
     -2.431  0.2361E+01  0.5335E+02
     -2.417  0.4198E+01  0.5341E+02
     -2.403  0.2371E+01  0.5344E+02
     -2.389  0.9183E+00  0.5345E+02
     -2.375  0.4020E+01  0.5351E+02
     -2.361  0.1142E+01  0.5352E+02
     -2.348  0.6730E+00  0.5353E+02
     -2.334  0.3947E+01  0.5359E+02
     -2.320  0.1380E+01  0.5361E+02
     -2.306  0.2202E-01  0.5361E+02
     -2.292  0.4555E-03  0.5361E+02
     -2.279  0.1435E+00  0.5361E+02
     -2.265  0.1699E+01  0.5363E+02
     -2.251  0.1125E+01  0.5365E+02
     -2.237  0.3940E-01  0.5365E+02
     -2.223  0.4155E+00  0.5365E+02
     -2.210  0.3683E+01  0.5370E+02
     -2.196  0.1867E+01  0.5373E+02
     -2.182  0.4586E-01  0.5373E+02
     -2.168  0.2378E-02  0.5373E+02
     -2.154  0.3376E+00  0.5373E+02
     -2.140  0.1979E+01  0.5376E+02
     -2.127  0.7943E+00  0.5377E+02
     -2.113  0.2509E+01  0.5381E+02
     -2.099  0.6680E+01  0.5390E+02
     -2.085  0.5077E+01  0.5397E+02
     -2.071  0.1405E+01  0.5399E+02
     -2.058  0.2143E+01  0.5402E+02
     -2.044  0.3845E+01  0.5407E+02
     -2.030  0.4729E+01  0.5414E+02
     -2.016  0.6357E+00  0.5415E+02
     -2.002  0.1429E+01  0.5417E+02
     -1.989  0.1952E+01  0.5419E+02
     -1.975  0.3905E+01  0.5425E+02
     -1.961  0.1629E+01  0.5427E+02
     -1.947  0.3265E-01  0.5427E+02
     -1.933  0.2077E-04  0.5427E+02
     -1.920  0.1334E-02  0.5427E+02
     -1.906  0.1456E+00  0.5427E+02
     -1.892  0.6713E+00  0.5428E+02
     -1.878  0.1817E+00  0.5428E+02
     -1.864  0.2266E-01  0.5428E+02
     -1.850  0.1338E+01  0.5430E+02
     -1.837  0.3963E+01  0.5436E+02
     -1.823  0.6859E+00  0.5437E+02
     -1.809  0.4837E-02  0.5437E+02
     -1.795  0.1044E-02  0.5437E+02
     -1.781  0.2306E+00  0.5437E+02
     -1.768  0.2633E+01  0.5441E+02
     -1.754  0.4892E+01  0.5447E+02
     -1.740  0.1279E+01  0.5449E+02
     -1.726  0.1673E+01  0.5451E+02
     -1.712  0.3813E+01  0.5457E+02
     -1.699  0.5070E+00  0.5457E+02
     -1.685  0.2640E-02  0.5457E+02
     -1.671  0.1498E-04  0.5457E+02
     -1.657  0.2659E-01  0.5457E+02
     -1.643  0.1495E+01  0.5460E+02
     -1.629  0.3909E+01  0.5465E+02
     -1.616  0.1301E+01  0.5467E+02
     -1.602  0.1982E+01  0.5469E+02
     -1.588  0.1409E+01  0.5471E+02
     -1.574  0.4030E+01  0.5477E+02
     -1.560  0.8718E+00  0.5478E+02
     -1.547  0.6299E-01  0.5478E+02
     -1.533  0.2004E+01  0.5481E+02
     -1.519  0.3590E+01  0.5486E+02
     -1.505  0.8064E+00  0.5487E+02
     -1.491  0.3726E+01  0.5492E+02
     -1.478  0.1803E+01  0.5495E+02
     -1.464  0.4197E-01  0.5495E+02
     -1.450  0.3090E-04  0.5495E+02
     -1.436  0.5894E-09  0.5495E+02
     -1.422  0.1001E-14  0.5495E+02
     -1.409  0.1470E-08  0.5495E+02
     -1.395  0.5099E-04  0.5495E+02
     -1.381  0.5159E-01  0.5495E+02
     -1.367  0.2309E+01  0.5498E+02
     -1.353  0.9714E+01  0.5511E+02
     -1.339  0.5651E+01  0.5519E+02
     -1.326  0.3555E+00  0.5520E+02
     -1.312  0.1177E+01  0.5521E+02
     -1.298  0.1657E+01  0.5524E+02
     -1.284  0.1296E+00  0.5524E+02
     -1.270  0.7843E-03  0.5524E+02
     -1.257  0.1384E+00  0.5524E+02
     -1.243  0.1685E+01  0.5526E+02
     -1.229  0.1144E+01  0.5528E+02
     -1.215  0.1348E+00  0.5528E+02
     -1.201  0.2288E+01  0.5531E+02
     -1.188  0.3312E+01  0.5536E+02
     -1.174  0.3322E+00  0.5536E+02
     -1.160  0.1218E+01  0.5538E+02
     -1.146  0.4002E+01  0.5544E+02
     -1.132  0.7715E+00  0.5545E+02
     -1.118  0.6165E-02  0.5545E+02
     -1.105  0.1430E-05  0.5545E+02
     -1.091  0.2433E-10  0.5545E+02
     -1.077  0.1911E-05  0.5545E+02
     -1.063  0.5770E-02  0.5545E+02
     -1.049  0.5178E+00  0.5545E+02
     -1.036  0.2017E+01  0.5548E+02
     -1.022  0.5445E+00  0.5549E+02
     -1.008  0.1469E+01  0.5551E+02
     -0.994  0.1389E+01  0.5553E+02
     -0.980  0.9949E-01  0.5553E+02
     -0.967  0.1031E+01  0.5554E+02
     -0.953  0.1773E+01  0.5557E+02
     -0.939  0.1728E+00  0.5557E+02
     -0.925  0.1332E+00  0.5557E+02
     -0.911  0.2732E+01  0.5561E+02
     -0.898  0.2973E+01  0.5565E+02
     -0.884  0.1747E+00  0.5565E+02
     -0.870  0.6105E-03  0.5565E+02
     -0.856  0.1052E+00  0.5566E+02
     -0.842  0.1568E+01  0.5568E+02
     -0.828  0.1279E+01  0.5569E+02
     -0.815  0.7032E-01  0.5570E+02
     -0.801  0.8094E+00  0.5571E+02
     -0.787  0.1917E+01  0.5573E+02
     -0.773  0.2627E+00  0.5574E+02
     -0.759  0.1416E-02  0.5574E+02
     -0.746  0.2161E-06  0.5574E+02
     -0.732  0.8194E-12  0.5574E+02
     -0.718  0.0000E+00  0.5574E+02
     -0.704  0.1335E-14  0.5574E+02
     -0.690  0.2107E-08  0.5574E+02
     -0.677  0.7587E-04  0.5574E+02
     -0.663  0.7163E-01  0.5574E+02
     -0.649  0.2212E+01  0.5577E+02
     -0.635  0.3627E+01  0.5582E+02
     -0.621  0.2119E+01  0.5585E+02
     -0.607  0.9651E+00  0.5586E+02
     -0.594  0.2490E-01  0.5586E+02
     -0.580  0.2055E-04  0.5586E+02
     -0.566  0.4410E-09  0.5586E+02
     -0.552  0.0000E+00  0.5586E+02
     -0.538  0.0000E+00  0.5586E+02
     -0.525  0.0000E+00  0.5586E+02
     -0.511  0.0000E+00  0.5586E+02
     -0.497  0.2503E-14  0.5586E+02
     -0.483  0.2833E-08  0.5586E+02
     -0.469  0.8188E-04  0.5586E+02
     -0.456  0.6876E-01  0.5586E+02
     -0.442  0.2223E+01  0.5589E+02
     -0.428  0.4195E+01  0.5595E+02
     -0.414  0.5272E+00  0.5596E+02
     -0.400  0.3323E+00  0.5596E+02
     -0.386  0.1974E+01  0.5599E+02
     -0.373  0.6903E+00  0.5600E+02
     -0.359  0.1102E-01  0.5600E+02
     -0.345  0.5379E-05  0.5600E+02
     -0.331  0.1513E-06  0.5600E+02
     -0.317  0.1120E-02  0.5600E+02
     -0.304  0.2331E+00  0.5600E+02
     -0.290  0.1880E+01  0.5603E+02
     -0.276  0.8727E+00  0.5604E+02
     -0.262  0.1935E-01  0.5604E+02
     -0.248  0.1351E-04  0.5604E+02
     -0.235  0.2439E-09  0.5604E+02
     -0.221  0.0000E+00  0.5604E+02
     -0.207  0.0000E+00  0.5604E+02
     -0.193  0.0000E+00  0.5604E+02
     -0.179  0.8512E-14  0.5604E+02
     -0.166  0.4542E-08  0.5604E+02
     -0.152  0.5940E-04  0.5604E+02
     -0.138  0.2123E-01  0.5604E+02
     -0.124  0.2749E+00  0.5605E+02
     -0.110  0.1976E+00  0.5605E+02
     -0.096  0.7252E-02  0.5605E+02
     -0.083  0.8818E-05  0.5605E+02
     -0.069  0.1275E-07  0.5605E+02
     -0.055  0.2096E-03  0.5605E+02
     -0.041  0.9517E-01  0.5605E+02
     -0.027  0.1524E+01  0.5607E+02
     -0.014  0.1326E+01  0.5609E+02
      0.000  0.6053E-01  0.5609E+02
      0.014  0.5386E-03  0.5609E+02
      0.028  0.1435E+00  0.5609E+02
      0.042  0.1699E+01  0.5612E+02
      0.055  0.1128E+01  0.5613E+02
      0.069  0.3801E+00  0.5614E+02
      0.083  0.1982E+01  0.5616E+02
      0.097  0.6698E+00  0.5617E+02
      0.111  0.1028E-01  0.5617E+02
      0.125  0.1456E-03  0.5617E+02
      0.138  0.7620E-01  0.5617E+02
      0.152  0.1427E+01  0.5619E+02
      0.166  0.1427E+01  0.5621E+02
      0.180  0.7624E-01  0.5621E+02
      0.194  0.1634E-03  0.5621E+02
      0.207  0.2628E-01  0.5621E+02
      0.221  0.9843E+00  0.5623E+02
      0.235  0.1816E+01  0.5625E+02
      0.249  0.1324E+01  0.5627E+02
      0.263  0.5966E+01  0.5635E+02
      0.276  0.1881E+01  0.5638E+02
      0.290  0.2757E-01  0.5638E+02
      0.304  0.9640E-02  0.5638E+02
      0.318  0.6540E+00  0.5639E+02
      0.332  0.2526E+01  0.5642E+02
      0.345  0.4202E+01  0.5648E+02
      0.359  0.1597E+01  0.5650E+02
      0.373  0.1562E+00  0.5651E+02
      0.387  0.2700E+01  0.5654E+02
      0.401  0.6729E+01  0.5664E+02
      0.415  0.4852E+01  0.5670E+02
      0.428  0.6230E+00  0.5671E+02
      0.442  0.3882E-02  0.5671E+02
      0.456  0.1642E-01  0.5671E+02
      0.470  0.1214E+01  0.5673E+02
      0.484  0.4003E+01  0.5679E+02
      0.497  0.8424E+00  0.5680E+02
      0.511  0.1390E+01  0.5682E+02
      0.525  0.1675E+01  0.5684E+02
      0.539  0.3173E+01  0.5688E+02
      0.553  0.2601E+01  0.5692E+02
      0.566  0.3679E+00  0.5692E+02
      0.580  0.3285E+01  0.5697E+02
      0.594  0.2389E+01  0.5700E+02
      0.608  0.8886E-01  0.5700E+02
      0.622  0.4781E-02  0.5700E+02
      0.636  0.4697E+00  0.5701E+02
      0.649  0.2017E+01  0.5704E+02
      0.663  0.5247E+00  0.5705E+02
      0.677  0.1193E+01  0.5706E+02
      0.691  0.4009E+01  0.5712E+02
      0.705  0.7954E+00  0.5713E+02
      0.718  0.4143E+00  0.5713E+02
      0.732  0.3669E+01  0.5718E+02
      0.746  0.1887E+01  0.5721E+02
      0.760  0.4710E-01  0.5721E+02
      0.774  0.2362E-02  0.5721E+02
      0.787  0.3521E+00  0.5722E+02
      0.801  0.3185E+01  0.5726E+02
      0.815  0.4685E+01  0.5732E+02
      0.829  0.8763E+00  0.5734E+02
      0.843  0.2377E+01  0.5737E+02
      0.857  0.3300E+01  0.5742E+02
      0.870  0.2549E+00  0.5742E+02
      0.884  0.7351E-03  0.5742E+02
      0.898  0.3491E-01  0.5742E+02
      0.912  0.2050E+01  0.5745E+02
      0.926  0.7530E+01  0.5755E+02
      0.939  0.4038E+01  0.5761E+02
      0.953  0.3870E+01  0.5766E+02
      0.967  0.7514E+00  0.5767E+02
      0.981  0.3245E+01  0.5772E+02
      0.995  0.2453E+01  0.5775E+02
      1.008  0.1278E+01  0.5777E+02
      1.022  0.6525E+01  0.5786E+02
      1.036  0.4052E+01  0.5791E+02
      1.050  0.1552E+01  0.5793E+02
      1.064  0.3983E+01  0.5799E+02
      1.077  0.7226E+00  0.5800E+02
      1.091  0.5384E-02  0.5800E+02
      1.105  0.1159E-05  0.5800E+02
      1.119  0.1159E-06  0.5800E+02
      1.133  0.9392E-03  0.5800E+02
      1.147  0.2147E+00  0.5800E+02
      1.160  0.2145E+01  0.5803E+02
      1.174  0.2894E+01  0.5807E+02
      1.188  0.1730E+01  0.5810E+02
      1.202  0.1836E+01  0.5812E+02
      1.216  0.1975E+00  0.5812E+02
      1.229  0.5744E-01  0.5813E+02
      1.243  0.1013E+01  0.5814E+02
      1.257  0.6697E+01  0.5823E+02
      1.271  0.9671E+01  0.5837E+02
      1.285  0.1905E+01  0.5839E+02
      1.298  0.3499E+01  0.5844E+02
      1.312  0.2264E+01  0.5847E+02
      1.326  0.2701E+01  0.5851E+02
      1.340  0.3068E+01  0.5855E+02
      1.354  0.7615E+00  0.5856E+02
      1.368  0.3887E+01  0.5862E+02
      1.381  0.2509E+01  0.5865E+02
      1.395  0.4547E+01  0.5871E+02
      1.409  0.3833E+01  0.5877E+02
      1.423  0.4222E+01  0.5882E+02
      1.437  0.2923E+01  0.5886E+02
      1.450  0.1751E+01  0.5889E+02
      1.464  0.3187E+01  0.5893E+02
      1.478  0.2150E+01  0.5896E+02
      1.492  0.3725E+01  0.5901E+02
      1.506  0.1975E+01  0.5904E+02
      1.519  0.1990E+01  0.5907E+02
      1.533  0.3104E+00  0.5907E+02
      1.547  0.2070E-02  0.5907E+02
      1.561  0.8222E-01  0.5907E+02
      1.575  0.2421E+01  0.5911E+02
      1.588  0.4884E+01  0.5917E+02
      1.602  0.1643E+01  0.5920E+02
      1.616  0.2618E+01  0.5923E+02
      1.630  0.9158E+01  0.5936E+02
      1.644  0.8943E+01  0.5948E+02
      1.658  0.5500E+01  0.5956E+02
      1.671  0.1069E+01  0.5957E+02
      1.685  0.1904E+01  0.5960E+02
      1.699  0.8452E+00  0.5961E+02
      1.713  0.4418E+00  0.5962E+02
      1.727  0.5716E+01  0.5970E+02
      1.740  0.7759E+01  0.5980E+02
      1.754  0.1123E+01  0.5982E+02
      1.768  0.2159E-01  0.5982E+02
      1.782  0.7260E+00  0.5983E+02
      1.796  0.1976E+01  0.5986E+02
      1.809  0.1680E+01  0.5988E+02
      1.823  0.5693E+01  0.5996E+02
      1.837  0.1894E+01  0.5999E+02
      1.851  0.4793E-01  0.5999E+02
      1.865  0.5937E+00  0.5999E+02
      1.879  0.3902E+01  0.6005E+02
      1.892  0.1848E+01  0.6007E+02
      1.906  0.2136E+01  0.6010E+02
      1.920  0.2271E+01  0.6013E+02
      1.934  0.1224E+01  0.6015E+02
      1.948  0.4800E-01  0.6015E+02
      1.961  0.3756E+00  0.6016E+02
      1.975  0.4405E+01  0.6022E+02
      1.989  0.4031E+01  0.6027E+02
      2.003  0.2544E+01  0.6031E+02
      2.017  0.3305E+01  0.6035E+02
      2.030  0.3683E+00  0.6036E+02
      2.044  0.3238E-01  0.6036E+02
      2.058  0.1046E+01  0.6037E+02
      2.072  0.2376E+01  0.6041E+02
      2.086  0.2951E+01  0.6045E+02
      2.099  0.3421E+01  0.6050E+02
      2.113  0.3020E+01  0.6054E+02
      2.127  0.1837E+00  0.6054E+02
      2.141  0.2836E+00  0.6054E+02
      2.155  0.2766E+01  0.6058E+02
      2.169  0.2700E+01  0.6062E+02
      2.182  0.2635E+00  0.6062E+02
      2.196  0.4925E+00  0.6063E+02
      2.210  0.4029E+01  0.6069E+02
      2.224  0.3578E+01  0.6073E+02
      2.238  0.9067E+00  0.6075E+02
      2.251  0.8571E+00  0.6076E+02
      2.265  0.5518E+01  0.6084E+02
      2.279  0.5117E+01  0.6091E+02
      2.293  0.5581E+01  0.6098E+02
      2.307  0.9686E+00  0.6100E+02
      2.320  0.5000E+00  0.6100E+02
      2.334  0.4871E+01  0.6107E+02
      2.348  0.3475E+01  0.6112E+02
      2.362  0.5258E+00  0.6113E+02
      2.376  0.6658E+01  0.6122E+02
      2.390  0.1001E+02  0.6136E+02
      2.403  0.1021E+01  0.6137E+02
      2.417  0.4274E-02  0.6137E+02
      2.431  0.5170E-06  0.6137E+02
      2.445  0.1580E-11  0.6137E+02
      2.459  0.0000E+00  0.6137E+02
      2.472  0.0000E+00  0.6137E+02
      2.486  0.2403E-13  0.6137E+02
      2.500  0.2031E-07  0.6137E+02
      2.514  0.4173E-03  0.6137E+02
      2.528  0.2353E+00  0.6137E+02
      2.541  0.4947E+01  0.6144E+02
      2.555  0.7649E+01  0.6155E+02
      2.569  0.5763E+01  0.6163E+02
      2.583  0.3745E+01  0.6168E+02
      2.597  0.1817E+01  0.6170E+02
      2.611  0.1932E+01  0.6173E+02
      2.624  0.1239E+01  0.6175E+02
      2.638  0.3136E+01  0.6179E+02
      2.652  0.2470E+01  0.6183E+02
      2.666  0.1391E+00  0.6183E+02
      2.680  0.2647E+00  0.6183E+02
      2.693  0.1919E+01  0.6186E+02
      2.707  0.8460E+00  0.6187E+02
      2.721  0.1171E+01  0.6189E+02
      2.735  0.2161E+01  0.6191E+02
      2.749  0.3423E+01  0.6196E+02
      2.762  0.4937E+01  0.6203E+02
      2.776  0.5314E+01  0.6210E+02
      2.790  0.1004E+01  0.6212E+02
      2.804  0.6199E+00  0.6213E+02
      2.818  0.2003E+01  0.6215E+02
      2.831  0.5753E+00  0.6216E+02
      2.845  0.2289E+01  0.6219E+02
      2.859  0.8211E+01  0.6231E+02
      2.873  0.6953E+01  0.6240E+02
      2.887  0.4002E+00  0.6241E+02
      2.901  0.8861E-03  0.6241E+02
      2.914  0.9884E-04  0.6241E+02
      2.928  0.8360E-01  0.6241E+02
      2.942  0.2338E+01  0.6244E+02
      2.956  0.3405E+01  0.6249E+02
      2.970  0.2540E+01  0.6252E+02
      2.983  0.3379E+01  0.6257E+02
      2.997  0.4189E+00  0.6258E+02
      3.011  0.1687E+01  0.6260E+02
      3.025  0.1141E+01  0.6262E+02
      3.039  0.3913E-01  0.6262E+02
      3.052  0.3536E-01  0.6262E+02
      3.066  0.1683E+01  0.6264E+02
      3.080  0.4164E+01  0.6270E+02
      3.094  0.7173E+01  0.6280E+02
      3.108  0.9928E+01  0.6293E+02
      3.122  0.2855E+01  0.6297E+02
      3.135  0.4921E+01  0.6304E+02
      3.149  0.2267E+01  0.6307E+02
      3.163  0.8698E+00  0.6308E+02
      3.177  0.2244E+01  0.6312E+02
      3.191  0.1718E+01  0.6314E+02
      3.204  0.5962E+01  0.6322E+02
      3.218  0.1829E+01  0.6325E+02
      3.232  0.1714E+01  0.6327E+02
      3.246  0.5498E+01  0.6335E+02
      3.260  0.6696E+01  0.6344E+02
      3.273  0.4434E+01  0.6350E+02
      3.287  0.2512E+01  0.6353E+02
      3.301  0.5538E+00  0.6354E+02
      3.315  0.3088E+01  0.6358E+02
      3.329  0.2349E+01  0.6362E+02
      3.342  0.1625E+00  0.6362E+02
      3.356  0.5410E-03  0.6362E+02
      3.370  0.3162E-01  0.6362E+02
      3.384  0.1056E+01  0.6363E+02
      3.398  0.1757E+01  0.6366E+02
      3.412  0.5659E+00  0.6367E+02
      3.425  0.2094E+01  0.6370E+02
      3.439  0.3619E+01  0.6375E+02
      3.453  0.9218E+01  0.6387E+02
      3.467  0.6830E+01  0.6397E+02
      3.481  0.6145E+01  0.6405E+02
      3.494  0.1726E+01  0.6408E+02
      3.508  0.4216E-01  0.6408E+02
      3.522  0.1571E+01  0.6410E+02
      3.536  0.9308E+01  0.6423E+02
      3.550  0.1364E+02  0.6441E+02
      3.563  0.8955E+01  0.6454E+02
      3.577  0.4549E+01  0.6460E+02
      3.591  0.1042E+01  0.6462E+02
      3.605  0.4936E+00  0.6462E+02
      3.619  0.3858E+01  0.6468E+02
      3.633  0.4747E+01  0.6474E+02
      3.646  0.7705E+01  0.6485E+02
      3.660  0.3041E+01  0.6489E+02
      3.674  0.1177E+01  0.6491E+02
      3.688  0.9489E+00  0.6492E+02
      3.702  0.4033E+01  0.6497E+02
      3.715  0.1051E+01  0.6499E+02
      3.729  0.1022E+00  0.6499E+02
      3.743  0.2404E+01  0.6502E+02
      3.757  0.3593E+01  0.6507E+02
      3.771  0.3167E+01  0.6512E+02
      3.784  0.7240E+01  0.6522E+02
      3.798  0.4226E+01  0.6528E+02
      3.812  0.7008E+00  0.6529E+02
      3.826  0.4796E+00  0.6529E+02
      3.840  0.5541E+01  0.6537E+02
      3.854  0.5783E+01  0.6545E+02
      3.867  0.1978E+01  0.6548E+02
      3.881  0.3461E+01  0.6552E+02
      3.895  0.8060E+01  0.6563E+02
      3.909  0.8112E+01  0.6575E+02
      3.923  0.9048E+01  0.6587E+02
      3.936  0.4030E+01  0.6593E+02
      3.950  0.2648E+01  0.6596E+02
      3.964  0.7726E+01  0.6607E+02
      3.978  0.3330E+01  0.6612E+02
      3.992  0.1343E+01  0.6614E+02
      4.005  0.6880E+01  0.6623E+02
      4.019  0.8164E+01  0.6634E+02
      4.033  0.7793E+01  0.6645E+02
      4.047  0.7896E+01  0.6656E+02
      4.061  0.2542E+01  0.6660E+02
      4.074  0.2589E+01  0.6663E+02
      4.088  0.7434E+01  0.6673E+02
      4.102  0.9004E+01  0.6686E+02
      4.116  0.6036E+01  0.6694E+02
      4.130  0.5113E+00  0.6695E+02
      4.144  0.6817E+00  0.6696E+02
      4.157  0.1978E+01  0.6698E+02
      4.171  0.3363E+00  0.6699E+02
      4.185  0.9252E-01  0.6699E+02
      4.199  0.3029E+01  0.6703E+02
      4.213  0.7617E+01  0.6714E+02
      4.226  0.7278E+01  0.6724E+02
      4.240  0.2932E+01  0.6728E+02
      4.254  0.1243E+01  0.6730E+02
      4.268  0.7615E+01  0.6740E+02
      4.282  0.1185E+02  0.6756E+02
      4.295  0.7781E+01  0.6767E+02
      4.309  0.3140E+01  0.6772E+02
      4.323  0.7739E+01  0.6782E+02
      4.337  0.7568E+01  0.6793E+02
      4.351  0.3196E+01  0.6797E+02
      4.365  0.3759E+01  0.6802E+02
      4.378  0.3468E+01  0.6807E+02
      4.392  0.1107E+02  0.6822E+02
      4.406  0.7075E+01  0.6832E+02
      4.420  0.5189E+01  0.6839E+02
      4.434  0.3424E+01  0.6844E+02
      4.447  0.1500E+01  0.6846E+02
      4.461  0.5858E+01  0.6854E+02
      4.475  0.1070E+02  0.6869E+02
      4.489  0.3769E+01  0.6874E+02
      4.503  0.4112E+01  0.6880E+02
      4.516  0.1795E+01  0.6882E+02
      4.530  0.4043E+01  0.6888E+02
      4.544  0.3454E+01  0.6893E+02
      4.558  0.1241E+01  0.6894E+02
      4.572  0.3634E+01  0.6899E+02
      4.585  0.4395E+01  0.6906E+02
      4.599  0.7627E+00  0.6907E+02
      4.613  0.5235E+00  0.6907E+02
      4.627  0.3260E+01  0.6912E+02
      4.641  0.7853E+01  0.6923E+02
      4.655  0.1246E+02  0.6940E+02
      4.668  0.3187E+01  0.6944E+02
      4.682  0.4218E+01  0.6950E+02
      4.696  0.4401E+01  0.6956E+02
      4.710  0.3099E+01  0.6960E+02
      4.724  0.6367E+01  0.6969E+02
      4.737  0.4999E+01  0.6976E+02
      4.751  0.3879E+01  0.6981E+02
      4.765  0.7391E+01  0.6992E+02
      4.779  0.1460E+02  0.7012E+02
      4.793  0.9216E+01  0.7025E+02
      4.806  0.4543E+01  0.7031E+02
      4.820  0.4475E+01  0.7037E+02
      4.834  0.7066E+01  0.7047E+02
      4.848  0.7672E+01  0.7057E+02
      4.862  0.3182E+01  0.7062E+02
      4.876  0.6662E+01  0.7071E+02
      4.889  0.6527E+01  0.7080E+02
      4.903  0.1232E+01  0.7082E+02
      4.917  0.3817E+01  0.7087E+02
      4.931  0.9090E+01  0.7100E+02
      4.945  0.2148E+01  0.7103E+02
      4.958  0.1843E+01  0.7105E+02
      4.972  0.3109E+01  0.7109E+02
      4.986  0.2650E+01  0.7113E+02
      5.000  0.5867E+01  0.7121E+02
      5.014  0.3145E+01  0.7125E+02
      5.027  0.5313E+01  0.7133E+02
      5.041  0.3368E+01  0.7137E+02
      5.055  0.4828E+01  0.7144E+02
      5.069  0.1166E+02  0.7160E+02
      5.083  0.8059E+01  0.7171E+02
      5.097  0.2705E+01  0.7175E+02
      5.110  0.6633E+01  0.7184E+02
      5.124  0.1128E+02  0.7200E+02
      5.138  0.1522E+02  0.7221E+02
      5.152  0.1163E+02  0.7237E+02
      5.166  0.4859E+01  0.7244E+02
      5.179  0.7009E+01  0.7253E+02
      5.193  0.4822E+01  0.7260E+02
      5.207  0.8394E+00  0.7261E+02
      5.221  0.3285E+01  0.7266E+02
      5.235  0.5799E+01  0.7274E+02
      5.248  0.6858E+01  0.7283E+02
      5.262  0.1229E+02  0.7300E+02
      5.276  0.5887E+01  0.7308E+02
      5.290  0.6610E+01  0.7317E+02
      5.304  0.8414E+01  0.7329E+02
      5.317  0.1130E+02  0.7345E+02
      5.331  0.8031E+01  0.7356E+02
      5.345  0.6220E+01  0.7364E+02
      5.359  0.3934E+01  0.7370E+02
      5.373  0.4991E+01  0.7377E+02
      5.387  0.5781E+00  0.7377E+02
      5.400  0.1856E+01  0.7380E+02
      5.414  0.4143E+01  0.7386E+02
      5.428  0.8081E+01  0.7397E+02
      5.442  0.5309E+01  0.7404E+02
      5.456  0.7794E+01  0.7415E+02
      5.469  0.1208E+02  0.7432E+02
      5.483  0.3491E+01  0.7436E+02
      5.497  0.2524E+01  0.7440E+02
      5.511  0.2379E+01  0.7443E+02
      5.525  0.3556E+01  0.7448E+02
      5.538  0.7108E+01  0.7458E+02
      5.552  0.4026E+01  0.7464E+02
      5.566  0.2432E+01  0.7467E+02
      5.580  0.4690E+01  0.7473E+02
      5.594  0.7565E+01  0.7484E+02
      5.608  0.8473E+01  0.7496E+02
      5.621  0.1124E+02  0.7511E+02
      5.635  0.7502E+01  0.7521E+02
      5.649  0.3564E+01  0.7526E+02
      5.663  0.5012E+01  0.7533E+02
      5.677  0.1340E+02  0.7552E+02
      5.690  0.1609E+02  0.7574E+02
      5.704  0.1046E+02  0.7588E+02
      5.718  0.5661E+01  0.7596E+02
      5.732  0.9297E+01  0.7609E+02
      5.746  0.6054E+01  0.7617E+02
      5.759  0.1899E+01  0.7620E+02
      5.773  0.7875E+01  0.7631E+02
      5.787  0.2614E+01  0.7635E+02
      5.801  0.4419E-01  0.7635E+02
      5.815  0.3296E+00  0.7635E+02
      5.828  0.3485E+01  0.7640E+02
      5.842  0.5758E+01  0.7648E+02
      5.856  0.5025E+01  0.7655E+02
      5.870  0.4829E+01  0.7661E+02
      5.884  0.7592E+01  0.7672E+02
      5.898  0.1274E+02  0.7690E+02
      5.911  0.1592E+02  0.7712E+02
      5.925  0.7190E+01  0.7721E+02
      5.939  0.1020E+02  0.7736E+02
      5.953  0.4778E+01  0.7742E+02
      5.967  0.2629E+01  0.7746E+02
      5.980  0.1603E+01  0.7748E+02
      5.994  0.5143E+01  0.7755E+02
      6.008  0.6955E+01  0.7765E+02
      6.022  0.6934E+01  0.7774E+02
      6.036  0.1010E+02  0.7788E+02
      6.049  0.1212E+02  0.7805E+02
      6.063  0.4270E+01  0.7811E+02
      6.077  0.8642E+01  0.7823E+02
      6.091  0.1407E+02  0.7842E+02
      6.105  0.3819E+01  0.7847E+02
      6.119  0.6532E+01  0.7856E+02
      6.132  0.8025E+01  0.7868E+02
      6.146  0.4864E+01  0.7874E+02
      6.160  0.3457E+01  0.7879E+02
      6.174  0.1039E+01  0.7881E+02
      6.188  0.3954E+01  0.7886E+02
      6.201  0.1386E+01  0.7888E+02
      6.215  0.1413E+01  0.7890E+02
      6.229  0.6426E+01  0.7899E+02
      6.243  0.5281E+01  0.7906E+02
      6.257  0.9398E+01  0.7919E+02
      6.270  0.1063E+02  0.7934E+02
      6.284  0.5241E+01  0.7941E+02
      6.298  0.7749E+00  0.7942E+02
      6.312  0.1732E+01  0.7944E+02
      6.326  0.6871E+01  0.7954E+02
      6.339  0.5972E+01  0.7962E+02
      6.353  0.3056E+01  0.7966E+02
      6.367  0.1369E+02  0.7985E+02
      6.381  0.1183E+02  0.8002E+02
      6.395  0.1089E+02  0.8017E+02
      6.409  0.8051E+01  0.8028E+02
      6.422  0.8825E+01  0.8040E+02
      6.436  0.6664E+01  0.8049E+02
      6.450  0.6400E+00  0.8050E+02
      6.464  0.2684E+01  0.8054E+02
      6.478  0.4713E+01  0.8060E+02
      6.491  0.4005E+01  0.8066E+02
      6.505  0.1032E+01  0.8067E+02
      6.519  0.3839E+01  0.8072E+02
      6.533  0.2016E+01  0.8075E+02
      6.547  0.5010E+01  0.8082E+02
      6.560  0.1222E+02  0.8099E+02
      6.574  0.8023E+01  0.8110E+02
      6.588  0.9568E+01  0.8123E+02
      6.602  0.6697E+01  0.8133E+02
      6.616  0.3084E+01  0.8137E+02
      6.630  0.2582E+01  0.8140E+02
      6.643  0.2056E+01  0.8143E+02
      6.657  0.6119E+01  0.8152E+02
      6.671  0.6583E+01  0.8161E+02
      6.685  0.6274E+01  0.8169E+02
      6.699  0.6338E+01  0.8178E+02
      6.712  0.4253E+01  0.8184E+02
      6.726  0.8729E+01  0.8196E+02
      6.740  0.3041E+01  0.8200E+02
      6.754  0.2519E+01  0.8204E+02
      6.768  0.2308E+01  0.8207E+02
      6.781  0.1482E+01  0.8209E+02
      6.795  0.6453E+01  0.8218E+02
      6.809  0.6637E+01  0.8227E+02
      6.823  0.1394E+01  0.8229E+02
      6.837  0.5137E+01  0.8236E+02
      6.851  0.8367E+01  0.8248E+02
      6.864  0.5938E+01  0.8256E+02
      6.878  0.1710E+01  0.8258E+02
      6.892  0.5743E+01  0.8266E+02
      6.906  0.1059E+02  0.8281E+02
      6.920  0.9065E+01  0.8293E+02
      6.933  0.5547E+01  0.8301E+02
      6.947  0.3221E+01  0.8305E+02
      6.961  0.1810E+01  0.8308E+02
      6.975  0.5399E+01  0.8315E+02
      6.989  0.3954E+01  0.8321E+02
      7.002  0.2173E+01  0.8324E+02
      7.016  0.5312E+01  0.8331E+02
      7.030  0.8762E+01  0.8343E+02
      7.044  0.7235E+01  0.8353E+02
      7.058  0.5716E+01  0.8361E+02
      7.071  0.8774E+01  0.8373E+02
      7.085  0.3196E+01  0.8378E+02
      7.099  0.1047E+00  0.8378E+02
      7.113  0.9593E+00  0.8379E+02
      7.127  0.2879E+01  0.8383E+02
      7.141  0.3516E+01  0.8388E+02
      7.154  0.6207E+01  0.8397E+02
      7.168  0.8544E+01  0.8408E+02
      7.182  0.8215E+01  0.8420E+02
      7.196  0.8675E+01  0.8432E+02
      7.210  0.1386E+02  0.8451E+02
      7.223  0.1357E+02  0.8470E+02
      7.237  0.2645E+01  0.8473E+02
      7.251  0.5248E-01  0.8473E+02
      7.265  0.9437E-02  0.8473E+02
      7.279  0.5947E+00  0.8474E+02
      7.292  0.5593E+01  0.8482E+02
      7.306  0.1368E+02  0.8501E+02
      7.320  0.1409E+02  0.8520E+02
      7.334  0.5647E+01  0.8528E+02
      7.348  0.1633E+01  0.8530E+02
      7.362  0.9439E+01  0.8543E+02
      7.375  0.1090E+02  0.8558E+02
      7.389  0.7921E+01  0.8569E+02
      7.403  0.9799E+01  0.8583E+02
      7.417  0.1001E+02  0.8597E+02
      7.431  0.8154E+01  0.8608E+02
      7.444  0.1178E+02  0.8624E+02
      7.458  0.1033E+02  0.8639E+02
      7.472  0.6453E+01  0.8647E+02
      7.486  0.1037E+02  0.8662E+02
      7.500  0.8284E+01  0.8673E+02
      7.513  0.8891E+01  0.8685E+02
      7.527  0.8812E+01  0.8698E+02
      7.541  0.5911E+01  0.8706E+02
      7.555  0.8988E+01  0.8718E+02
      7.569  0.5918E+01  0.8726E+02
      7.582  0.8855E+01  0.8739E+02
      7.596  0.9297E+01  0.8751E+02
      7.610  0.4007E+01  0.8757E+02
      7.624  0.4898E+01  0.8764E+02
      7.638  0.1080E+02  0.8779E+02
      7.652  0.8117E+01  0.8790E+02
      7.665  0.2265E+01  0.8793E+02
      7.679  0.6920E+01  0.8803E+02
      7.693  0.1046E+02  0.8817E+02
      7.707  0.1240E+02  0.8834E+02
      7.721  0.1599E+02  0.8856E+02
      7.734  0.9401E+01  0.8869E+02
      7.748  0.6049E+01  0.8878E+02
      7.762  0.3554E+01  0.8882E+02
      7.776  0.7826E+01  0.8893E+02
      7.790  0.9468E+01  0.8906E+02
      7.803  0.1031E+02  0.8921E+02
      7.817  0.7986E+01  0.8932E+02
      7.831  0.3194E+01  0.8936E+02
      7.845  0.6917E+01  0.8946E+02
      7.859  0.1553E+02  0.8967E+02
      7.873  0.1325E+02  0.8985E+02
      7.886  0.4516E+01  0.8992E+02
      7.900  0.9795E+01  0.9005E+02
      7.914  0.1375E+02  0.9024E+02
      7.928  0.6031E+01  0.9032E+02
      7.942  0.2715E+01  0.9036E+02
      7.955  0.2896E+01  0.9040E+02
      7.969  0.9915E+01  0.9054E+02
      7.983  0.6982E+01  0.9064E+02
      7.997  0.3643E+01  0.9069E+02
      8.011  0.7828E+01  0.9079E+02
      8.024  0.8280E+01  0.9091E+02
      8.038  0.1213E+02  0.9108E+02
      8.052  0.1971E+02  0.9135E+02
      8.066  0.1258E+02  0.9152E+02
      8.080  0.1221E+02  0.9169E+02
      8.094  0.3836E+01  0.9174E+02
      8.107  0.8641E+00  0.9176E+02
      8.121  0.2845E+01  0.9179E+02
      8.135  0.1093E+02  0.9195E+02
      8.149  0.1224E+02  0.9211E+02
      8.163  0.1587E+02  0.9233E+02
      8.176  0.1439E+02  0.9253E+02
      8.190  0.6777E+01  0.9263E+02
      8.204  0.1547E+02  0.9284E+02
      8.218  0.9692E+01  0.9297E+02
      8.232  0.6154E+01  0.9306E+02
      8.245  0.5278E+01  0.9313E+02
      8.259  0.1822E+02  0.9338E+02
      8.273  0.1748E+02  0.9362E+02
      8.287  0.1048E+02  0.9377E+02
      8.301  0.8456E+01  0.9389E+02
      8.314  0.8551E+01  0.9400E+02
      8.328  0.5969E+01  0.9409E+02
      8.342  0.1312E+02  0.9427E+02
      8.356  0.1374E+02  0.9446E+02
      8.370  0.6803E+01  0.9455E+02
      8.384  0.9080E+01  0.9468E+02
      8.397  0.6900E+01  0.9477E+02
      8.411  0.1012E+02  0.9491E+02
      8.425  0.1785E+02  0.9516E+02
      8.439  0.1693E+02  0.9539E+02
      8.453  0.5538E+01  0.9547E+02
      8.466  0.5078E+01  0.9554E+02
      8.480  0.1046E+02  0.9568E+02
      8.494  0.1130E+02  0.9584E+02
      8.508  0.1199E+02  0.9600E+02
      8.522  0.1696E+02  0.9624E+02
      8.535  0.5205E+01  0.9631E+02
      8.549  0.1061E+02  0.9646E+02
      8.563  0.1191E+02  0.9662E+02
      8.577  0.1275E+02  0.9680E+02
      8.591  0.1478E+02  0.9700E+02
      8.605  0.2019E+02  0.9728E+02
      8.618  0.1688E+02  0.9751E+02
      8.632  0.5408E+01  0.9759E+02
      8.646  0.4311E+01  0.9765E+02
      8.660  0.7474E+01  0.9775E+02
      8.674  0.1090E+02  0.9790E+02
      8.687  0.8530E+01  0.9802E+02
      8.701  0.6108E+01  0.9810E+02
      8.715  0.1133E+02  0.9826E+02
      8.729  0.1598E+02  0.9848E+02
      8.743  0.8525E+01  0.9860E+02
      8.756  0.3862E+01  0.9865E+02
      8.770  0.7466E+01  0.9876E+02
      8.784  0.1646E+02  0.9898E+02
      8.798  0.9058E+01  0.9911E+02
      8.812  0.8351E+01  0.9922E+02
      8.825  0.1001E+02  0.9936E+02
      8.839  0.5345E+01  0.9944E+02
      8.853  0.1320E+02  0.9962E+02
      8.867  0.8291E+01  0.9973E+02
      8.881  0.1233E+02  0.9990E+02
      8.895  0.1369E+02  0.1001E+03
      8.908  0.1623E+02  0.1003E+03
      8.922  0.1869E+02  0.1006E+03
      8.936  0.1645E+02  0.1008E+03
      8.950  0.7625E+01  0.1009E+03
      8.964  0.9516E+01  0.1010E+03
      8.977  0.1197E+02  0.1012E+03
      8.991  0.7112E+01  0.1013E+03
      9.005  0.9647E+01  0.1014E+03
      9.019  0.9641E+01  0.1016E+03
      9.033  0.8192E+01  0.1017E+03
      9.046  0.2777E+01  0.1017E+03
      9.060  0.1349E+01  0.1017E+03
      9.074  0.9090E+01  0.1019E+03
      9.088  0.1136E+02  0.1020E+03
      9.102  0.1362E+02  0.1022E+03
      9.116  0.1443E+02  0.1024E+03
      9.129  0.3691E+01  0.1025E+03
      9.143  0.1025E+02  0.1026E+03
      9.157  0.9182E+01  0.1027E+03
      9.171  0.7288E+01  0.1028E+03
      9.185  0.3538E+01  0.1029E+03
      9.198  0.3334E+01  0.1029E+03
      9.212  0.4809E+01  0.1030E+03
      9.226  0.4736E+01  0.1031E+03
      9.240  0.1154E+02  0.1032E+03
      9.254  0.1766E+02  0.1035E+03
      9.267  0.1194E+02  0.1036E+03
      9.281  0.1422E+02  0.1038E+03
      9.295  0.2008E+02  0.1041E+03
      9.309  0.1138E+02  0.1043E+03
      9.323  0.1053E+02  0.1044E+03
      9.336  0.1064E+02  0.1045E+03
      9.350  0.6185E+01  0.1046E+03
      9.364  0.8890E+00  0.1046E+03
      9.378  0.3510E+01  0.1047E+03
      9.392  0.1914E+01  0.1047E+03
      9.406  0.5078E+00  0.1047E+03
      9.419  0.7277E+01  0.1048E+03
      9.433  0.1012E+02  0.1050E+03
      9.447  0.1410E+02  0.1052E+03
      9.461  0.1740E+02  0.1054E+03
      9.475  0.6652E+01  0.1055E+03
      9.488  0.6578E+01  0.1056E+03
      9.502  0.1261E+01  0.1056E+03
      9.516  0.1979E+01  0.1056E+03
      9.530  0.8167E+00  0.1056E+03
      9.544  0.5898E+01  0.1057E+03
      9.557  0.9323E+01  0.1059E+03
      9.571  0.7414E+01  0.1060E+03
      9.585  0.9499E+01  0.1061E+03
      9.599  0.1697E+02  0.1063E+03
      9.613  0.1239E+02  0.1065E+03
      9.627  0.1747E+02  0.1067E+03
      9.640  0.7639E+01  0.1068E+03
      9.654  0.1684E+01  0.1069E+03
      9.668  0.7943E+01  0.1070E+03
      9.682  0.1101E+02  0.1071E+03
      9.696  0.6861E+01  0.1072E+03
      9.709  0.6928E+01  0.1073E+03
      9.723  0.1530E+02  0.1075E+03
      9.737  0.9992E+01  0.1077E+03
      9.751  0.3011E+01  0.1077E+03
      9.765  0.3202E+01  0.1077E+03
      9.778  0.6591E+01  0.1078E+03
      9.792  0.9702E+01  0.1080E+03
      9.806  0.7529E+01  0.1081E+03
      9.820  0.9351E+01  0.1082E+03
      9.834  0.1047E+02  0.1083E+03
      9.848  0.8080E+01  0.1085E+03
      9.861  0.3763E+01  0.1085E+03
      9.875  0.1216E+02  0.1087E+03
      9.889  0.1732E+02  0.1089E+03
      9.903  0.1102E+02  0.1091E+03
      9.917  0.4985E+01  0.1091E+03
      9.930  0.1183E+02  0.1093E+03
      9.944  0.1717E+02  0.1095E+03
      9.958  0.7497E+01  0.1096E+03
      9.972  0.5157E+01  0.1097E+03
      9.986  0.6443E+01  0.1098E+03
      9.999  0.6946E+01  0.1099E+03
     10.013  0.8788E+01  0.1100E+03
     10.027  0.8447E+01  0.1101E+03
     10.041  0.5375E+01  0.1102E+03
     10.055  0.6061E+00  0.1102E+03
     10.068  0.2131E+01  0.1103E+03
     10.082  0.1093E+02  0.1104E+03
     10.096  0.1419E+02  0.1106E+03
     10.110  0.9568E+01  0.1107E+03
     10.124  0.5040E+01  0.1108E+03
     10.138  0.3146E+01  0.1108E+03
     10.151  0.3674E+01  0.1109E+03
     10.165  0.6731E+01  0.1110E+03
     10.179  0.1179E+02  0.1111E+03
     10.193  0.1187E+02  0.1113E+03
     10.207  0.4626E+01  0.1114E+03
     10.220  0.1100E+02  0.1115E+03
     10.234  0.1746E+02  0.1118E+03
     10.248  0.7972E+01  0.1119E+03
     10.262  0.8280E+01  0.1120E+03
     10.276  0.1101E+02  0.1121E+03
     10.289  0.5818E+01  0.1122E+03
     10.303  0.6551E+01  0.1123E+03
     10.317  0.8283E+01  0.1124E+03
     10.331  0.1361E+02  0.1126E+03
     10.345  0.6098E+01  0.1127E+03
     10.359  0.1477E+01  0.1127E+03
     10.372  0.9080E+01  0.1129E+03
     10.386  0.8112E+01  0.1130E+03
     10.400  0.4068E+01  0.1130E+03
     10.414  0.1113E+02  0.1132E+03
     10.428  0.1820E+02  0.1134E+03
     10.441  0.1283E+02  0.1136E+03
     10.455  0.1330E+02  0.1138E+03
     10.469  0.1053E+02  0.1139E+03
     10.483  0.5430E+01  0.1140E+03
     10.497  0.4706E+01  0.1141E+03
     10.510  0.6395E+01  0.1142E+03
     10.524  0.1350E+02  0.1143E+03
     10.538  0.1100E+02  0.1145E+03
     10.552  0.3039E+01  0.1145E+03
     10.566  0.2273E+01  0.1146E+03
     10.579  0.1234E+02  0.1147E+03
     10.593  0.2169E+02  0.1150E+03
     10.607  0.1058E+02  0.1152E+03
     10.621  0.3769E+01  0.1152E+03
     10.635  0.1028E+02  0.1154E+03
     10.649  0.1638E+02  0.1156E+03
     10.662  0.7413E+01  0.1157E+03
     10.676  0.4280E+01  0.1158E+03
     10.690  0.4262E+01  0.1158E+03
     10.704  0.7444E+01  0.1159E+03
     10.718  0.1016E+02  0.1161E+03
     10.731  0.9550E+01  0.1162E+03
     10.745  0.1375E+02  0.1164E+03
     10.759  0.1149E+02  0.1166E+03
     10.773  0.8255E+01  0.1167E+03
     10.787  0.8059E+01  0.1168E+03
     10.800  0.3582E+01  0.1168E+03
     10.814  0.4255E+01  0.1169E+03
     10.828  0.3739E+01  0.1169E+03
     10.842  0.5618E+01  0.1170E+03
     10.856  0.6904E+01  0.1171E+03
     10.870  0.7215E+01  0.1172E+03
     10.883  0.6234E+01  0.1173E+03
     10.897  0.1046E+02  0.1174E+03
     10.911  0.7778E+01  0.1175E+03
     10.925  0.8171E+01  0.1177E+03
     10.939  0.3691E+01  0.1177E+03
     10.952  0.5357E+01  0.1178E+03
     10.966  0.6381E+01  0.1179E+03
     10.980  0.9976E+01  0.1180E+03
     10.994  0.4978E+01  0.1181E+03
     11.008  0.4229E+01  0.1181E+03
     11.021  0.2129E+01  0.1182E+03
     11.035  0.4972E+01  0.1182E+03
     11.049  0.1526E+02  0.1184E+03
     11.063  0.4021E+01  0.1185E+03
     11.077  0.3498E+01  0.1186E+03
     11.091  0.4265E+01  0.1186E+03
     11.104  0.8292E+01  0.1187E+03
     11.118  0.7573E+01  0.1188E+03
     11.132  0.1464E+02  0.1190E+03
     11.146  0.1993E+02  0.1193E+03
     11.160  0.1344E+02  0.1195E+03
     11.173  0.8588E+01  0.1196E+03
     11.187  0.3084E+01  0.1197E+03
     11.201  0.9928E+01  0.1198E+03
     11.215  0.2276E+02  0.1201E+03
     11.229  0.1147E+02  0.1203E+03
     11.242  0.5306E+01  0.1203E+03
     11.256  0.1097E+02  0.1205E+03
     11.270  0.1674E+02  0.1207E+03
     11.284  0.5869E+01  0.1208E+03
     11.298  0.7385E+01  0.1209E+03
     11.311  0.7055E+01  0.1210E+03
     11.325  0.5840E+01  0.1211E+03
     11.339  0.8779E+01  0.1212E+03
     11.353  0.1018E+02  0.1213E+03
     11.367  0.3039E+01  0.1214E+03
     11.381  0.2674E+01  0.1214E+03
     11.394  0.5002E+01  0.1215E+03
     11.408  0.6072E+01  0.1216E+03
     11.422  0.8824E+01  0.1217E+03
     11.436  0.1162E+02  0.1219E+03
     11.450  0.6861E+01  0.1220E+03
     11.463  0.3802E+01  0.1220E+03
     11.477  0.1893E+01  0.1220E+03
     11.491  0.3691E+01  0.1221E+03
     11.505  0.1072E+02  0.1222E+03
     11.519  0.1098E+02  0.1224E+03
     11.532  0.7738E+01  0.1225E+03
     11.546  0.9472E+01  0.1226E+03
     11.560  0.6907E+01  0.1227E+03
     11.574  0.2415E+01  0.1227E+03
     11.588  0.5902E+01  0.1228E+03
     11.602  0.5724E+01  0.1229E+03
     11.615  0.1121E+02  0.1231E+03
     11.629  0.5770E+01  0.1231E+03
     11.643  0.2577E+01  0.1232E+03
     11.657  0.8372E+01  0.1233E+03
     11.671  0.4331E+01  0.1234E+03
     11.684  0.4483E+01  0.1234E+03
     11.698  0.5868E+01  0.1235E+03
     11.712  0.6568E+01  0.1236E+03
     11.726  0.2012E+01  0.1236E+03
     11.740  0.2527E+01  0.1236E+03
     11.753  0.3321E+01  0.1237E+03
     11.767  0.5196E+01  0.1238E+03
     11.781  0.1451E+02  0.1240E+03
     11.795  0.6273E+01  0.1241E+03
     11.809  0.1260E+02  0.1242E+03
     11.822  0.1687E+02  0.1245E+03
     11.836  0.1156E+02  0.1246E+03
     11.850  0.1223E+02  0.1248E+03
     11.864  0.9074E+01  0.1249E+03
     11.878  0.1384E+02  0.1251E+03
     11.892  0.1620E+02  0.1253E+03
     11.905  0.3172E+01  0.1254E+03
     11.919  0.6589E+01  0.1255E+03
     11.933  0.1351E+02  0.1257E+03
     11.947  0.1109E+02  0.1258E+03
     11.961  0.1069E+02  0.1260E+03
     11.974  0.9698E+01  0.1261E+03
     11.988  0.6936E+01  0.1262E+03
     12.002  0.1429E+01  0.1262E+03
     12.016  0.1098E+01  0.1262E+03
     12.030  0.9134E+01  0.1263E+03
     12.043  0.1207E+02  0.1265E+03
     12.057  0.1113E+02  0.1267E+03
     12.071  0.1282E+02  0.1268E+03
     12.085  0.1239E+02  0.1270E+03
     12.099  0.5357E+01  0.1271E+03
     12.113  0.3317E+01  0.1271E+03
     12.126  0.4607E+01  0.1272E+03
     12.140  0.7216E+01  0.1273E+03
     12.154  0.4831E+01  0.1274E+03
     12.168  0.1161E+02  0.1275E+03
     12.182  0.1484E+02  0.1277E+03
     12.195  0.1050E+02  0.1279E+03
     12.209  0.5201E+01  0.1279E+03
     12.223  0.7590E+01  0.1280E+03
     12.237  0.5883E+01  0.1281E+03
     12.251  0.7896E+01  0.1282E+03
     12.264  0.1117E+02  0.1284E+03
     12.278  0.1038E+02  0.1285E+03
     12.292  0.1386E+02  0.1287E+03
     12.306  0.1110E+02  0.1289E+03
     12.320  0.6673E+01  0.1290E+03
     12.334  0.2320E+01  0.1290E+03
     12.347  0.5632E+01  0.1291E+03
     12.361  0.2836E+01  0.1291E+03
     12.375  0.2015E+01  0.1291E+03
     12.389  0.3831E+01  0.1292E+03
     12.403  0.6816E+01  0.1293E+03
     12.416  0.7353E+01  0.1294E+03
     12.430  0.1326E+02  0.1296E+03
     12.444  0.1591E+02  0.1298E+03
     12.458  0.3751E+01  0.1299E+03
     12.472  0.3825E+00  0.1299E+03
     12.485  0.4221E+01  0.1299E+03
     12.499  0.9627E+01  0.1300E+03
     12.513  0.1727E+02  0.1303E+03
     12.527  0.1689E+02  0.1305E+03
     12.541  0.6329E+01  0.1306E+03
     12.554  0.3252E+01  0.1307E+03
     12.568  0.2881E+01  0.1307E+03
     12.582  0.2141E+01  0.1307E+03
     12.596  0.5702E+01  0.1308E+03
     12.610  0.1056E+02  0.1309E+03
     12.624  0.1384E+02  0.1311E+03
     12.637  0.1831E+02  0.1314E+03
     12.651  0.1146E+02  0.1315E+03
     12.665  0.9180E+01  0.1317E+03
     12.679  0.9426E+01  0.1318E+03
     12.693  0.1138E+02  0.1320E+03
     12.706  0.1644E+02  0.1322E+03
     12.720  0.1252E+02  0.1324E+03
     12.734  0.5167E+01  0.1324E+03
     12.748  0.1198E+02  0.1326E+03
     12.762  0.1542E+02  0.1328E+03
     12.775  0.1039E+02  0.1330E+03
     12.789  0.1454E+02  0.1332E+03
     12.803  0.1653E+02  0.1334E+03
     12.817  0.8604E+01  0.1335E+03
     12.831  0.5023E+01  0.1336E+03
     12.845  0.1008E+02  0.1337E+03
     12.858  0.8139E+01  0.1338E+03
     12.872  0.1481E+02  0.1340E+03
     12.886  0.1545E+02  0.1342E+03
     12.900  0.5965E+01  0.1343E+03
     12.914  0.2942E+01  0.1344E+03
     12.927  0.8618E+01  0.1345E+03
     12.941  0.1302E+02  0.1347E+03
     12.955  0.4732E+01  0.1347E+03
     12.969  0.2271E+00  0.1347E+03
     12.983  0.1573E+00  0.1347E+03
     12.996  0.4667E+01  0.1348E+03
     13.010  0.1116E+02  0.1350E+03
     13.024  0.1546E+02  0.1352E+03
     13.038  0.1828E+02  0.1354E+03
     13.052  0.1983E+02  0.1357E+03
     13.065  0.9917E+01  0.1358E+03
     13.079  0.6313E+01  0.1359E+03
     13.093  0.1534E+02  0.1361E+03
     13.107  0.1386E+02  0.1363E+03
     13.121  0.6168E+01  0.1364E+03
     13.135  0.8367E+01  0.1365E+03
     13.148  0.1070E+02  0.1367E+03
     13.162  0.1127E+02  0.1368E+03
     13.176  0.6279E+01  0.1369E+03
     13.190  0.5839E+01  0.1370E+03
     13.204  0.6259E+01  0.1371E+03
     13.217  0.5989E+01  0.1372E+03
     13.231  0.5840E+01  0.1372E+03
     13.245  0.8404E+01  0.1374E+03
     13.259  0.1193E+02  0.1375E+03
     13.273  0.1385E+02  0.1377E+03
     13.286  0.1327E+02  0.1379E+03
     13.300  0.1262E+02  0.1381E+03
     13.314  0.1235E+02  0.1382E+03
     13.328  0.1101E+02  0.1384E+03
     13.342  0.6072E+01  0.1385E+03
     13.356  0.3328E+01  0.1385E+03
     13.369  0.4365E+01  0.1386E+03
     13.383  0.8913E+01  0.1387E+03
     13.397  0.1753E+02  0.1390E+03
     13.411  0.1379E+02  0.1391E+03
     13.425  0.8670E+01  0.1393E+03
     13.438  0.1487E+02  0.1395E+03
     13.452  0.1137E+02  0.1396E+03
     13.466  0.1495E+02  0.1398E+03
     13.480  0.1284E+02  0.1400E+03
     13.494  0.8783E+01  0.1401E+03
     13.507  0.3549E+01  0.1402E+03
     13.521  0.2050E+01  0.1402E+03
     13.535  0.3937E+01  0.1403E+03
     13.549  0.1832E+01  0.1403E+03
     13.563  0.9278E+01  0.1404E+03
     13.576  0.2176E+02  0.1407E+03
     13.590  0.2303E+02  0.1410E+03
     13.604  0.1735E+02  0.1413E+03
     13.618  0.1127E+02  0.1414E+03
     13.632  0.1351E+02  0.1416E+03
     13.646  0.1207E+02  0.1418E+03
     13.659  0.1454E+02  0.1420E+03
     13.673  0.6661E+01  0.1421E+03
     13.687  0.2959E+01  0.1421E+03
     13.701  0.7620E+01  0.1422E+03
     13.715  0.6528E+01  0.1423E+03
     13.728  0.5892E+01  0.1424E+03
     13.742  0.7461E+01  0.1425E+03
     13.756  0.8111E+01  0.1426E+03
     13.770  0.1136E+02  0.1428E+03
     13.784  0.1304E+02  0.1429E+03
     13.797  0.1182E+02  0.1431E+03
     13.811  0.1192E+02  0.1433E+03
     13.825  0.6761E+01  0.1434E+03
     13.839  0.6022E+01  0.1434E+03
     13.853  0.9087E+01  0.1436E+03
     13.867  0.1255E+02  0.1437E+03
     13.880  0.3355E+01  0.1438E+03
     13.894  0.2211E+01  0.1438E+03
     13.908  0.4718E+01  0.1439E+03
     13.922  0.1667E+02  0.1441E+03
     13.936  0.1832E+02  0.1444E+03
     13.949  0.1700E+02  0.1446E+03
     13.963  0.1313E+02  0.1448E+03
     13.977  0.6288E+01  0.1449E+03
     13.991  0.5261E+01  0.1449E+03
     14.005  0.5543E+01  0.1450E+03
     14.018  0.4970E+01  0.1451E+03
     14.032  0.7522E+01  0.1452E+03
     14.046  0.1778E+02  0.1454E+03
     14.060  0.1709E+02  0.1457E+03
     14.074  0.1454E+02  0.1459E+03
     14.088  0.1440E+02  0.1461E+03
     14.101  0.6799E+01  0.1462E+03
     14.115  0.5485E+01  0.1462E+03
     14.129  0.7349E+01  0.1463E+03
     14.143  0.1151E+02  0.1465E+03
     14.157  0.7338E+01  0.1466E+03
     14.170  0.1272E+02  0.1468E+03
     14.184  0.1129E+02  0.1469E+03
     14.198  0.1526E+02  0.1472E+03
     14.212  0.1516E+02  0.1474E+03
     14.226  0.1065E+02  0.1475E+03
     14.239  0.1268E+02  0.1477E+03
     14.253  0.1891E+02  0.1479E+03
     14.267  0.1912E+02  0.1482E+03
     14.281  0.1462E+02  0.1484E+03
     14.295  0.9688E+01  0.1485E+03
     14.308  0.2106E+01  0.1486E+03
     14.322  0.2241E+01  0.1486E+03
     14.336  0.6879E+01  0.1487E+03
     14.350  0.1048E+02  0.1488E+03
     14.364  0.1987E+02  0.1491E+03
     14.378  0.1605E+02  0.1493E+03
     14.391  0.2199E+02  0.1496E+03
     14.405  0.1927E+02  0.1499E+03
     14.419  0.2384E+02  0.1502E+03
     14.433  0.1158E+02  0.1504E+03
     14.447  0.1416E+02  0.1506E+03
     14.460  0.2076E+02  0.1509E+03
     14.474  0.1020E+02  0.1510E+03
     14.488  0.5847E+01  0.1511E+03
     14.502  0.8972E+01  0.1512E+03
     14.516  0.1548E+02  0.1514E+03
     14.529  0.1669E+02  0.1517E+03
     14.543  0.4428E+01  0.1517E+03
     14.557  0.4035E+01  0.1518E+03
     14.571  0.1113E+02  0.1519E+03
     14.585  0.1542E+02  0.1522E+03
     14.599  0.8298E+01  0.1523E+03
     14.612  0.1193E+02  0.1524E+03
     14.626  0.1404E+02  0.1526E+03
     14.640  0.1667E+02  0.1529E+03
     14.654  0.1623E+02  0.1531E+03
     14.668  0.5405E+01  0.1532E+03
     14.681  0.3814E+01  0.1532E+03
     14.695  0.8046E+01  0.1533E+03
     14.709  0.7608E+01  0.1534E+03
     14.723  0.1440E+02  0.1536E+03
     14.737  0.1094E+02  0.1538E+03
     14.750  0.2917E+01  0.1538E+03
     14.764  0.7307E+01  0.1539E+03
     14.778  0.1621E+02  0.1541E+03
     14.792  0.9685E+01  0.1543E+03
     14.806  0.9003E+01  0.1544E+03
     14.819  0.9371E+01  0.1545E+03
     14.833  0.5538E+01  0.1546E+03
     14.847  0.2419E+01  0.1546E+03
     14.861  0.2074E+01  0.1547E+03
     14.875  0.9226E+01  0.1548E+03
     14.889  0.1179E+02  0.1550E+03
     14.902  0.1019E+02  0.1551E+03
     14.916  0.1501E+02  0.1553E+03
     14.930  0.5392E+01  0.1554E+03
     14.944  0.1171E+02  0.1555E+03
     14.958  0.1965E+02  0.1558E+03
     14.971  0.6528E+01  0.1559E+03
     14.985  0.1967E+01  0.1559E+03
     14.999  0.2340E+01  0.1560E+03
     15.013  0.7281E+01  0.1561E+03
     15.027  0.8895E+01  0.1562E+03
     15.040  0.7055E+01  0.1563E+03
     15.054  0.1025E+02  0.1564E+03
     15.068  0.5848E+01  0.1565E+03
     15.082  0.5377E+01  0.1566E+03
     15.096  0.1628E+02  0.1568E+03
     15.110  0.1545E+02  0.1570E+03
     15.123  0.7822E+01  0.1571E+03
     15.137  0.1393E+02  0.1573E+03
     15.151  0.1614E+02  0.1575E+03
     15.165  0.8446E+01  0.1577E+03
     15.179  0.7565E+01  0.1578E+03
     15.192  0.7438E+01  0.1579E+03
     15.206  0.1302E+02  0.1580E+03
     15.220  0.1081E+02  0.1582E+03
     15.234  0.3374E+01  0.1582E+03
     15.248  0.1068E+01  0.1583E+03
     15.261  0.8491E+01  0.1584E+03
     15.275  0.1088E+02  0.1585E+03
     15.289  0.9146E+01  0.1586E+03
     15.303  0.1686E+02  0.1589E+03
     15.317  0.1310E+02  0.1591E+03
     15.331  0.4297E+01  0.1591E+03
     15.344  0.9329E+01  0.1593E+03
     15.358  0.1033E+02  0.1594E+03
     15.372  0.3721E+01  0.1594E+03
     15.386  0.5178E+01  0.1595E+03
     15.400  0.2551E+01  0.1596E+03
     15.413  0.2703E+01  0.1596E+03
     15.427  0.4009E+01  0.1596E+03
     15.441  0.1719E+01  0.1597E+03
     15.455  0.4127E+01  0.1597E+03
     15.469  0.4000E+01  0.1598E+03
     15.482  0.7492E+01  0.1599E+03
     15.496  0.5838E+01  0.1600E+03
     15.510  0.1407E+02  0.1602E+03
     15.524  0.1111E+02  0.1603E+03
     15.538  0.7032E+01  0.1604E+03
     15.551  0.1401E+02  0.1606E+03
     15.565  0.8798E+01  0.1607E+03
     15.579  0.1866E+02  0.1610E+03
     15.593  0.6360E+01  0.1611E+03
     15.607  0.2268E+01  0.1611E+03
     15.621  0.5501E+00  0.1611E+03
     15.634  0.2090E+01  0.1611E+03
     15.648  0.5412E+01  0.1612E+03
     15.662  0.5197E+01  0.1613E+03
     15.676  0.5362E+01  0.1614E+03
     15.690  0.1131E+02  0.1615E+03
     15.703  0.1913E+02  0.1618E+03
     15.717  0.1830E+02  0.1620E+03
     15.731  0.1098E+02  0.1622E+03
     15.745  0.7292E+01  0.1623E+03
     15.759  0.1055E+02  0.1624E+03
     15.772  0.6599E+01  0.1625E+03
     15.786  0.1157E+02  0.1627E+03
     15.800  0.1244E+02  0.1629E+03
     15.814  0.8736E+01  0.1630E+03
     15.828  0.7076E+01  0.1631E+03
     15.842  0.1687E+02  0.1633E+03
     15.855  0.1379E+02  0.1635E+03
     15.869  0.5065E+01  0.1636E+03
     15.883  0.1510E+02  0.1638E+03
     15.897  0.1758E+02  0.1640E+03
     15.911  0.6463E+01  0.1641E+03
     15.924  0.4226E+01  0.1642E+03
     15.938  0.5765E+01  0.1642E+03
     15.952  0.8262E+01  0.1644E+03
     15.966  0.9549E+01  0.1645E+03
     15.980  0.9053E+01  0.1646E+03
     15.993  0.1474E+02  0.1648E+03
     16.007  0.1360E+02  0.1650E+03
     16.021  0.1057E+02  0.1652E+03
     16.035  0.6319E+01  0.1652E+03
     16.049  0.7234E+00  0.1652E+03
     16.062  0.1116E+01  0.1653E+03
     16.076  0.4733E+01  0.1653E+03
     16.090  0.8576E+01  0.1654E+03
     16.104  0.6895E+01  0.1655E+03
     16.118  0.6739E+01  0.1656E+03
     16.132  0.1234E+02  0.1658E+03
     16.145  0.8728E+01  0.1659E+03
     16.159  0.5528E+01  0.1660E+03
     16.173  0.1359E+02  0.1662E+03
     16.187  0.2306E+02  0.1665E+03
     16.201  0.1200E+02  0.1667E+03
     16.214  0.6258E+01  0.1668E+03
     16.228  0.6285E+01  0.1668E+03
     16.242  0.7344E+01  0.1670E+03
     16.256  0.3354E+01  0.1670E+03
     16.270  0.3801E+01  0.1670E+03
     16.283  0.1237E+02  0.1672E+03
     16.297  0.1597E+02  0.1674E+03
     16.311  0.8517E+01  0.1676E+03
     16.325  0.1130E+02  0.1677E+03
     16.339  0.1054E+02  0.1679E+03
     16.353  0.7325E+01  0.1680E+03
     16.366  0.7830E+01  0.1681E+03
     16.380  0.7734E+01  0.1682E+03
     16.394  0.4163E+01  0.1682E+03
     16.408  0.8880E+00  0.1682E+03
     16.422  0.3281E+01  0.1683E+03
     16.435  0.7346E+01  0.1684E+03
     16.449  0.7480E+01  0.1685E+03
     16.463  0.1190E+02  0.1687E+03
     16.477  0.6025E+01  0.1687E+03
     16.491  0.4030E+01  0.1688E+03
     16.504  0.9029E+01  0.1689E+03
     16.518  0.6996E+01  0.1690E+03
     16.532  0.8343E+01  0.1691E+03
     16.546  0.1368E+02  0.1693E+03
     16.560  0.2266E+02  0.1696E+03
     16.574  0.1753E+02  0.1699E+03
     16.587  0.4855E+01  0.1699E+03
     16.601  0.1250E+02  0.1701E+03
     16.615  0.7464E+01  0.1702E+03
     16.629  0.1096E+02  0.1704E+03
     16.643  0.1300E+02  0.1706E+03
     16.656  0.8899E+01  0.1707E+03
     16.670  0.1670E+02  0.1709E+03
     16.684  0.1510E+02  0.1711E+03
     16.698  0.3612E+01  0.1712E+03
     16.712  0.1043E+02  0.1713E+03
     16.725  0.1274E+02  0.1715E+03
     16.739  0.1267E+02  0.1717E+03
     16.753  0.1061E+02  0.1718E+03
     16.767  0.1390E+02  0.1720E+03
     16.781  0.1025E+02  0.1721E+03
     16.794  0.4531E+01  0.1722E+03
     16.808  0.1056E+02  0.1723E+03
     16.822  0.6369E+01  0.1724E+03
     16.836  0.6677E+01  0.1725E+03
     16.850  0.1241E+02  0.1727E+03
     16.864  0.1492E+02  0.1729E+03
     16.877  0.1102E+02  0.1731E+03
     16.891  0.9491E+01  0.1732E+03
     16.905  0.9504E+01  0.1733E+03
     16.919  0.1018E+02  0.1735E+03
     16.933  0.4593E+01  0.1735E+03
     16.946  0.5845E+01  0.1736E+03
     16.960  0.5409E+01  0.1737E+03
     16.974  0.3990E+01  0.1737E+03
     16.988  0.5866E+01  0.1738E+03
     17.002  0.1592E+02  0.1740E+03
     17.015  0.1326E+02  0.1742E+03
     17.029  0.6035E+01  0.1743E+03
     17.043  0.1161E+02  0.1745E+03
     17.057  0.1020E+02  0.1746E+03
     17.071  0.1185E+02  0.1748E+03
     17.085  0.3280E+01  0.1748E+03
     17.098  0.2208E+01  0.1748E+03
     17.112  0.5644E+01  0.1749E+03
     17.126  0.9162E+01  0.1750E+03
     17.140  0.1322E+02  0.1752E+03
     17.154  0.1688E+02  0.1755E+03
     17.167  0.1196E+02  0.1756E+03
     17.181  0.1291E+02  0.1758E+03
     17.195  0.9338E+01  0.1759E+03
     17.209  0.1713E+02  0.1762E+03
     17.223  0.2349E+02  0.1765E+03
     17.236  0.1267E+02  0.1767E+03
     17.250  0.7742E+01  0.1768E+03
     17.264  0.1276E+02  0.1770E+03
     17.278  0.1259E+02  0.1771E+03
     17.292  0.1064E+02  0.1773E+03
     17.305  0.3868E+01  0.1773E+03
     17.319  0.3312E+01  0.1774E+03
     17.333  0.5479E+01  0.1775E+03
     17.347  0.7091E+01  0.1775E+03
     17.361  0.8010E+01  0.1777E+03
     17.375  0.4080E+01  0.1777E+03
     17.388  0.1399E+02  0.1779E+03
     17.402  0.9496E+01  0.1780E+03
     17.416  0.1069E+02  0.1782E+03
     17.430  0.1103E+02  0.1783E+03
     17.444  0.9121E+01  0.1785E+03
     17.457  0.1293E+02  0.1786E+03
     17.471  0.1011E+02  0.1788E+03
     17.485  0.5325E+01  0.1789E+03
     17.499  0.7707E+01  0.1790E+03
     17.513  0.9935E+01  0.1791E+03
     17.526  0.1395E+02  0.1793E+03
     17.540  0.1448E+02  0.1795E+03
     17.554  0.6674E+01  0.1796E+03
     17.568  0.1092E+02  0.1797E+03
     17.582  0.1098E+02  0.1799E+03
     17.596  0.8488E+01  0.1800E+03
     17.609  0.6034E+01  0.1801E+03
     17.623  0.3576E+01  0.1801E+03
     17.637  0.3379E+01  0.1802E+03
     17.651  0.6628E+01  0.1803E+03
     17.665  0.6116E+01  0.1804E+03
     17.678  0.1727E+02  0.1806E+03
     17.692  0.1715E+02  0.1808E+03
     17.706  0.8404E+01  0.1810E+03
     17.720  0.1083E+02  0.1811E+03
     17.734  0.7548E+01  0.1812E+03
     17.747  0.5085E+01  0.1813E+03
     17.761  0.9368E+01  0.1814E+03
     17.775  0.1300E+02  0.1816E+03
     17.789  0.2015E+02  0.1819E+03
     17.803  0.9406E+01  0.1820E+03
     17.816  0.5374E+01  0.1821E+03
     17.830  0.1100E+02  0.1822E+03
     17.844  0.1309E+02  0.1824E+03
     17.858  0.1204E+02  0.1826E+03
     17.872  0.8531E+01  0.1827E+03
     17.886  0.3522E+01  0.1827E+03
     17.899  0.1207E+02  0.1829E+03
     17.913  0.1241E+02  0.1831E+03
     17.927  0.1475E+02  0.1833E+03
     17.941  0.9344E+01  0.1834E+03
     17.955  0.5413E+01  0.1835E+03
     17.968  0.2337E+02  0.1838E+03
     17.982  0.1715E+02  0.1840E+03
     17.996  0.8526E+01  0.1842E+03
     18.010  0.8232E+01  0.1843E+03
     18.024  0.5943E+01  0.1844E+03
     18.037  0.7929E+01  0.1845E+03
     18.051  0.8574E+01  0.1846E+03
     18.065  0.3421E+01  0.1846E+03
     18.079  0.3434E+01  0.1847E+03
     18.093  0.4515E+01  0.1847E+03
     18.107  0.5216E+01  0.1848E+03
     18.120  0.5999E+01  0.1849E+03
     18.134  0.1181E+02  0.1851E+03
     18.148  0.1372E+02  0.1852E+03
     18.162  0.7436E+01  0.1853E+03
     18.176  0.7140E+01  0.1854E+03
     18.189  0.5393E+01  0.1855E+03
     18.203  0.2098E+01  0.1856E+03
     18.217  0.8363E+01  0.1857E+03
     18.231  0.1246E+02  0.1858E+03
     18.245  0.9409E+01  0.1860E+03
     18.258  0.1530E+02  0.1862E+03
     18.272  0.7867E+01  0.1863E+03
     18.286  0.1519E+02  0.1865E+03
     18.300  0.1319E+02  0.1867E+03
     18.314  0.9312E+01  0.1868E+03
     18.328  0.1717E+01  0.1868E+03
     18.341  0.5099E+01  0.1869E+03
     18.355  0.1504E+02  0.1871E+03
     18.369  0.1709E+02  0.1873E+03
     18.383  0.1544E+02  0.1876E+03
     18.397  0.7510E+01  0.1877E+03
     18.410  0.7344E+01  0.1878E+03
     18.424  0.1238E+02  0.1879E+03
     18.438  0.7992E+01  0.1880E+03
     18.452  0.9953E+01  0.1882E+03
     18.466  0.2014E+02  0.1885E+03
     18.479  0.2241E+02  0.1888E+03
     18.493  0.5645E+01  0.1888E+03
     18.507  0.1132E+01  0.1889E+03
     18.521  0.1062E+01  0.1889E+03
     18.535  0.5076E+01  0.1889E+03
     18.548  0.1273E+02  0.1891E+03
     18.562  0.1660E+02  0.1894E+03
     18.576  0.7995E+01  0.1895E+03
     18.590  0.5127E+01  0.1895E+03
     18.604  0.6502E+01  0.1896E+03
     18.618  0.1961E+02  0.1899E+03
     18.631  0.2215E+02  0.1902E+03
     18.645  0.8248E+01  0.1903E+03
     18.659  0.6217E+01  0.1904E+03
     18.673  0.1875E+02  0.1907E+03
     18.687  0.1170E+02  0.1908E+03
     18.700  0.9563E+01  0.1910E+03
     18.714  0.1044E+02  0.1911E+03
     18.728  0.1006E+02  0.1912E+03
     18.742  0.6531E+01  0.1913E+03
     18.756  0.5789E+01  0.1914E+03
     18.769  0.1366E+02  0.1916E+03
     18.783  0.1044E+02  0.1917E+03
     18.797  0.7420E+01  0.1918E+03
     18.811  0.3089E+01  0.1919E+03
     18.825  0.9629E+01  0.1920E+03
     18.839  0.1262E+02  0.1922E+03
     18.852  0.7750E+01  0.1923E+03
     18.866  0.2633E+01  0.1923E+03
     18.880  0.6838E+01  0.1924E+03
     18.894  0.1405E+02  0.1926E+03
     18.908  0.1018E+02  0.1928E+03
     18.921  0.9681E+01  0.1929E+03
     18.935  0.1095E+02  0.1931E+03
     18.949  0.6926E+01  0.1931E+03
     18.963  0.1272E+02  0.1933E+03
     18.977  0.1139E+02  0.1935E+03
     18.990  0.1117E+02  0.1936E+03
     19.004  0.1886E+02  0.1939E+03
     19.018  0.1239E+02  0.1941E+03
     19.032  0.1920E+02  0.1943E+03
     19.046  0.2297E+02  0.1946E+03
     19.059  0.1936E+02  0.1949E+03
     19.073  0.2180E+02  0.1952E+03
     19.087  0.1312E+02  0.1954E+03
     19.101  0.5094E+01  0.1955E+03
     19.115  0.2872E+01  0.1955E+03
     19.129  0.7368E+01  0.1956E+03
     19.142  0.1008E+02  0.1957E+03
     19.156  0.1046E+02  0.1959E+03
     19.170  0.1571E+02  0.1961E+03
     19.184  0.1149E+02  0.1963E+03
     19.198  0.1143E+02  0.1964E+03
     19.211  0.1172E+02  0.1966E+03
     19.225  0.5593E+01  0.1967E+03
     19.239  0.1085E+02  0.1968E+03
     19.253  0.1820E+02  0.1971E+03
     19.267  0.1077E+02  0.1972E+03
     19.280  0.5935E+01  0.1973E+03
     19.294  0.1146E+02  0.1975E+03
     19.308  0.1083E+02  0.1976E+03
     19.322  0.7231E+01  0.1977E+03
     19.336  0.1172E+02  0.1979E+03
     19.350  0.1085E+02  0.1980E+03
     19.363  0.9075E+01  0.1981E+03
     19.377  0.9227E+01  0.1983E+03
     19.391  0.3841E+01  0.1983E+03
     19.405  0.6953E+01  0.1984E+03
     19.419  0.5297E+01  0.1985E+03
     19.432  0.5787E+01  0.1986E+03
     19.446  0.1411E+02  0.1988E+03
     19.460  0.1727E+02  0.1990E+03
     19.474  0.1462E+02  0.1992E+03
     19.488  0.1573E+02  0.1994E+03
     19.501  0.1600E+02  0.1996E+03
     19.515  0.1946E+02  0.1999E+03
     19.529  0.1839E+02  0.2002E+03
     19.543  0.1932E+02  0.2004E+03
     19.557  0.2198E+02  0.2007E+03
     19.571  0.1171E+02  0.2009E+03
     19.584  0.1227E+02  0.2011E+03
     19.598  0.1772E+02  0.2013E+03
     19.612  0.1251E+02  0.2015E+03
     19.626  0.1340E+02  0.2017E+03
     19.640  0.8544E+01  0.2018E+03
     19.653  0.7037E+01  0.2019E+03
     19.667  0.6556E+01  0.2020E+03
     19.681  0.1444E+02  0.2022E+03
     19.695  0.1587E+02  0.2024E+03
     19.709  0.6542E+01  0.2025E+03
     19.722  0.8563E+01  0.2026E+03
     19.736  0.9569E+01  0.2027E+03
     19.750  0.8339E+01  0.2029E+03
     19.764  0.6688E+01  0.2029E+03
     19.778  0.1591E+02  0.2032E+03
     19.791  0.1678E+02  0.2034E+03
     19.805  0.1136E+02  0.2036E+03
     19.819  0.3280E+01  0.2036E+03
     19.833  0.6401E+01  0.2037E+03
     19.847  0.1898E+02  0.2039E+03
     19.861  0.1546E+02  0.2042E+03
     19.874  0.9109E+01  0.2043E+03
     19.888  0.7810E+01  0.2044E+03
     19.902  0.7306E+01  0.2045E+03
     19.916  0.1258E+02  0.2047E+03
     19.930  0.1143E+02  0.2048E+03
     19.943  0.9096E+01  0.2050E+03
     19.957  0.1121E+02  0.2051E+03
     19.971  0.6298E+01  0.2052E+03
     19.985  0.7258E+01  0.2053E+03
     19.999  0.1403E+02  0.2055E+03
     20.012  0.7737E+01  0.2056E+03
     20.026  0.3619E+01  0.2056E+03
     20.040  0.1513E+02  0.2059E+03
     20.054  0.1262E+02  0.2060E+03
     20.068  0.3060E+01  0.2061E+03
     20.082  0.9087E+01  0.2062E+03
     20.095  0.1427E+02  0.2064E+03
     20.109  0.8428E+01  0.2065E+03
     20.123  0.2275E+01  0.2065E+03
     20.137  0.5348E+01  0.2066E+03
     20.151  0.6972E+01  0.2067E+03
     20.164  0.7884E+01  0.2068E+03
     20.178  0.3389E+01  0.2069E+03
     20.192  0.6590E+01  0.2070E+03
     20.206  0.4970E+01  0.2070E+03
     20.220  0.5774E+01  0.2071E+03
     20.233  0.4023E+01  0.2072E+03
     20.247  0.7933E+01  0.2073E+03
     20.261  0.8052E+01  0.2074E+03
     20.275  0.1063E+02  0.2075E+03
     20.289  0.1071E+02  0.2077E+03
     20.302  0.5529E+01  0.2078E+03
     20.316  0.7329E+01  0.2079E+03
     20.330  0.9921E+01  0.2080E+03
     20.344  0.1396E+02  0.2082E+03
     20.358  0.1003E+02  0.2083E+03
     20.372  0.9442E+01  0.2085E+03
     20.385  0.7270E+01  0.2086E+03
     20.399  0.8017E+01  0.2087E+03
     20.413  0.1985E+01  0.2087E+03
     20.427  0.2237E+01  0.2087E+03
     20.441  0.9483E+01  0.2089E+03
     20.454  0.1734E+02  0.2091E+03
     20.468  0.1275E+02  0.2093E+03
     20.482  0.1052E+02  0.2094E+03
     20.496  0.1049E+02  0.2096E+03
     20.510  0.1304E+02  0.2097E+03
     20.523  0.1379E+02  0.2099E+03
     20.537  0.7704E+01  0.2100E+03
     20.551  0.1175E+01  0.2101E+03
     20.565  0.6905E+01  0.2101E+03
     20.579  0.1265E+02  0.2103E+03
     20.593  0.1918E+01  0.2104E+03
     20.606  0.4100E+01  0.2104E+03
     20.620  0.1046E+02  0.2106E+03
     20.634  0.8580E+01  0.2107E+03
     20.648  0.9279E+01  0.2108E+03
     20.662  0.8584E+01  0.2109E+03
     20.675  0.9931E+01  0.2111E+03
     20.689  0.7442E+01  0.2112E+03
     20.703  0.1323E+02  0.2113E+03
     20.717  0.2129E+02  0.2116E+03
     20.731  0.8586E+01  0.2118E+03
     20.744  0.6002E+01  0.2118E+03
     20.758  0.1085E+02  0.2120E+03
     20.772  0.7617E+01  0.2121E+03
     20.786  0.1041E+02  0.2122E+03
     20.800  0.1044E+02  0.2124E+03
     20.813  0.8824E+01  0.2125E+03
     20.827  0.6360E+01  0.2126E+03
     20.841  0.4189E+01  0.2126E+03
     20.855  0.4976E+01  0.2127E+03
     20.869  0.7554E+01  0.2128E+03
     20.883  0.1402E+02  0.2130E+03
     20.896  0.1095E+02  0.2132E+03
     20.910  0.7047E+01  0.2133E+03
     20.924  0.1267E+02  0.2134E+03
     20.938  0.6454E+01  0.2135E+03
     20.952  0.5384E+01  0.2136E+03
     20.965  0.9310E+01  0.2137E+03
     20.979  0.5993E+01  0.2138E+03
     20.993  0.6020E+01  0.2139E+03
     21.007  0.1422E+02  0.2141E+03
     21.021  0.1129E+02  0.2142E+03
     21.034  0.4278E+01  0.2143E+03
     21.048  0.6111E+01  0.2144E+03
     21.062  0.1507E+02  0.2146E+03
     21.076  0.1458E+02  0.2148E+03
     21.090  0.1354E+02  0.2150E+03
     21.104  0.1130E+02  0.2151E+03
     21.117  0.5376E+01  0.2152E+03
     21.131  0.8609E+01  0.2153E+03
     21.145  0.9780E+01  0.2155E+03
     21.159  0.1155E+02  0.2156E+03
     21.173  0.1462E+02  0.2158E+03
     21.186  0.9342E+01  0.2160E+03
     21.200  0.1224E+02  0.2161E+03
     21.214  0.1458E+02  0.2163E+03
     21.228  0.1489E+02  0.2165E+03
     21.242  0.1562E+02  0.2168E+03
     21.255  0.4680E+01  0.2168E+03
     21.269  0.3229E+01  0.2169E+03
     21.283  0.1194E+02  0.2170E+03
     21.297  0.1630E+02  0.2173E+03
     21.311  0.8958E+01  0.2174E+03
     21.325  0.8788E+01  0.2175E+03
     21.338  0.8001E+01  0.2176E+03
     21.352  0.1921E+02  0.2179E+03
     21.366  0.1545E+02  0.2181E+03
     21.380  0.3934E+01  0.2181E+03
     21.394  0.9774E+01  0.2183E+03
     21.407  0.1070E+02  0.2184E+03
     21.421  0.8766E+01  0.2185E+03
     21.435  0.9919E+01  0.2187E+03
     21.449  0.9440E+01  0.2188E+03
     21.463  0.8718E+01  0.2189E+03
     21.476  0.1150E+02  0.2191E+03
     21.490  0.1553E+02  0.2193E+03
     21.504  0.1492E+02  0.2195E+03
     21.518  0.7111E+01  0.2196E+03
     21.532  0.1395E+02  0.2198E+03
     21.545  0.2365E+02  0.2201E+03
     21.559  0.4957E+01  0.2202E+03
     21.573  0.6792E+01  0.2203E+03
     21.587  0.1210E+02  0.2205E+03
     21.601  0.6939E+01  0.2206E+03
     21.615  0.2668E+01  0.2206E+03
     21.628  0.1127E+02  0.2207E+03
     21.642  0.7671E+01  0.2209E+03
     21.656  0.7189E+01  0.2210E+03
     21.670  0.8080E+01  0.2211E+03
     21.684  0.1232E+02  0.2212E+03
     21.697  0.9465E+01  0.2214E+03
     21.711  0.7633E+01  0.2215E+03
     21.725  0.1050E+02  0.2216E+03
     21.739  0.1145E+02  0.2218E+03
     21.753  0.1351E+02  0.2220E+03
     21.766  0.7935E+01  0.2221E+03
     21.780  0.1026E+02  0.2222E+03
     21.794  0.1169E+02  0.2224E+03
     21.808  0.1148E+02  0.2225E+03
     21.822  0.1054E+02  0.2227E+03
     21.836  0.6788E+01  0.2228E+03
     21.849  0.6546E+01  0.2229E+03
     21.863  0.9001E+01  0.2230E+03
     21.877  0.1109E+02  0.2231E+03
     21.891  0.6346E+01  0.2232E+03
     21.905  0.8634E+01  0.2233E+03
     21.918  0.3702E+01  0.2234E+03
     21.932  0.1252E+02  0.2236E+03
     21.946  0.2420E+02  0.2239E+03
     21.960  0.1696E+02  0.2241E+03
     21.974  0.3218E+01  0.2242E+03
     21.987  0.3420E+01  0.2242E+03
     22.001  0.9810E+01  0.2244E+03
     22.015  0.1592E+02  0.2246E+03
     22.029  0.1277E+02  0.2248E+03
     22.043  0.1146E+02  0.2249E+03
     22.056  0.1242E+02  0.2251E+03
     22.070  0.1215E+02  0.2253E+03
     22.084  0.1167E+02  0.2254E+03
     22.098  0.1290E+02  0.2256E+03
     22.112  0.2238E+02  0.2259E+03
     22.126  0.1006E+02  0.2260E+03
     22.139  0.9088E+01  0.2262E+03
     22.153  0.9758E+01  0.2263E+03
     22.167  0.9010E+01  0.2264E+03
     22.181  0.1075E+02  0.2266E+03
     22.195  0.5167E+01  0.2267E+03
     22.208  0.9133E+01  0.2268E+03
     22.222  0.1222E+02  0.2269E+03
     22.236  0.7136E+01  0.2270E+03
     22.250  0.2118E+02  0.2273E+03
     22.264  0.1339E+02  0.2275E+03
     22.277  0.5322E+01  0.2276E+03
     22.291  0.1086E+02  0.2277E+03
     22.305  0.1201E+02  0.2279E+03
     22.319  0.1066E+02  0.2281E+03
     22.333  0.1750E+02  0.2283E+03
     22.347  0.8083E+01  0.2284E+03
     22.360  0.6249E+01  0.2285E+03
     22.374  0.4554E+01  0.2286E+03
     22.388  0.6904E+01  0.2287E+03
     22.402  0.1420E+02  0.2289E+03
     22.416  0.1277E+02  0.2290E+03
     22.429  0.1141E+02  0.2292E+03
     22.443  0.4662E+01  0.2293E+03
     22.457  0.2835E+01  0.2293E+03
     22.471  0.4391E+01  0.2294E+03
     22.485  0.3815E+01  0.2294E+03
     22.498  0.5205E+01  0.2295E+03
     22.512  0.5528E+01  0.2296E+03
     22.526  0.6945E+01  0.2296E+03
     22.540  0.1524E+02  0.2299E+03
     22.554  0.9550E+01  0.2300E+03
     22.568  0.1310E+01  0.2300E+03
     22.581  0.7549E+01  0.2301E+03
     22.595  0.1588E+02  0.2303E+03
     22.609  0.1090E+02  0.2305E+03
     22.623  0.9986E+01  0.2306E+03
     22.637  0.1298E+02  0.2308E+03
     22.650  0.9614E+01  0.2309E+03
     22.664  0.1374E+02  0.2311E+03
     22.678  0.1097E+02  0.2313E+03
     22.692  0.5881E+01  0.2314E+03
     22.706  0.1421E+02  0.2316E+03
     22.719  0.8483E+01  0.2317E+03
     22.733  0.1979E+02  0.2319E+03
     22.747  0.1447E+02  0.2321E+03
     22.761  0.8920E+01  0.2323E+03
     22.775  0.1031E+02  0.2324E+03
     22.788  0.1405E+02  0.2326E+03
     22.802  0.9871E+01  0.2327E+03
     22.816  0.6676E+01  0.2328E+03
     22.830  0.3372E+01  0.2329E+03
     22.844  0.5784E+01  0.2330E+03
     22.858  0.3291E+01  0.2330E+03
     22.871  0.7845E+01  0.2331E+03
     22.885  0.1154E+02  0.2333E+03
     22.899  0.7813E+01  0.2334E+03
     22.913  0.1002E+02  0.2335E+03
     22.927  0.7118E+01  0.2336E+03
     22.940  0.6547E+01  0.2337E+03
     22.954  0.7025E+01  0.2338E+03
     22.968  0.9570E+01  0.2339E+03
     22.982  0.1107E+02  0.2341E+03
     22.996  0.1518E+02  0.2343E+03
     23.009  0.1230E+02  0.2345E+03
     23.023  0.7513E+01  0.2346E+03
     23.037  0.1260E+02  0.2347E+03
     23.051  0.2351E+01  0.2348E+03
     23.065  0.3440E+01  0.2348E+03
     23.079  0.9083E+01  0.2349E+03
     23.092  0.5747E+01  0.2350E+03
     23.106  0.8713E+01  0.2351E+03
     23.120  0.4076E+01  0.2352E+03
     23.134  0.5070E+01  0.2353E+03
     23.148  0.1078E+02  0.2354E+03
     23.161  0.4889E+01  0.2355E+03
     23.175  0.6454E+01  0.2356E+03
     23.189  0.1580E+02  0.2358E+03
     23.203  0.1086E+02  0.2359E+03
     23.217  0.9469E+01  0.2361E+03
     23.230  0.9111E+01  0.2362E+03
     23.244  0.1074E+02  0.2364E+03
     23.258  0.9461E+01  0.2365E+03
     23.272  0.6965E+01  0.2366E+03
     23.286  0.7736E+01  0.2367E+03
     23.299  0.1202E+02  0.2369E+03
     23.313  0.8373E+01  0.2370E+03
     23.327  0.1024E+02  0.2371E+03
     23.341  0.1131E+02  0.2373E+03
     23.355  0.1093E+02  0.2374E+03
     23.369  0.9869E+01  0.2376E+03
     23.382  0.5107E+01  0.2376E+03
     23.396  0.5546E+01  0.2377E+03
     23.410  0.9535E+01  0.2378E+03
     23.424  0.7728E+01  0.2379E+03
     23.438  0.7125E+01  0.2380E+03
     23.451  0.1297E+02  0.2382E+03
     23.465  0.1244E+02  0.2384E+03
     23.479  0.9727E+01  0.2385E+03
     23.493  0.1258E+02  0.2387E+03
     23.507  0.1736E+02  0.2389E+03
     23.520  0.1442E+02  0.2391E+03
     23.534  0.5217E+01  0.2392E+03
     23.548  0.2556E+01  0.2392E+03
     23.562  0.8408E+01  0.2394E+03
     23.576  0.1017E+02  0.2395E+03
     23.590  0.4392E+01  0.2396E+03
     23.603  0.5926E+01  0.2396E+03
     23.617  0.8793E+01  0.2398E+03
     23.631  0.9246E+01  0.2399E+03
     23.645  0.1173E+02  0.2401E+03
     23.659  0.9605E+01  0.2402E+03
     23.672  0.9892E+01  0.2403E+03
     23.686  0.1075E+02  0.2405E+03
     23.700  0.7435E+01  0.2406E+03
     23.714  0.8297E+01  0.2407E+03
     23.728  0.4420E+01  0.2407E+03
     23.741  0.6848E+01  0.2408E+03
     23.755  0.1283E+02  0.2410E+03
     23.769  0.2075E+02  0.2413E+03
     23.783  0.1023E+02  0.2414E+03
     23.797  0.2969E+01  0.2415E+03
     23.811  0.6280E+01  0.2416E+03
     23.824  0.9204E+01  0.2417E+03
     23.838  0.1362E+02  0.2419E+03
     23.852  0.6279E+01  0.2420E+03
     23.866  0.4768E+01  0.2420E+03
     23.880  0.4384E+01  0.2421E+03
     23.893  0.3319E+01  0.2422E+03
     23.907  0.4196E+01  0.2422E+03
     23.921  0.7735E+01  0.2423E+03
     23.935  0.9362E+01  0.2424E+03
     23.949  0.1295E+02  0.2426E+03
     23.962  0.1487E+02  0.2428E+03
     23.976  0.5737E+01  0.2429E+03
     23.990  0.1097E+01  0.2429E+03
     24.004  0.4697E+01  0.2430E+03
     24.018  0.6395E+01  0.2431E+03
     24.031  0.1479E+01  0.2431E+03
     24.045  0.7196E+01  0.2432E+03
     24.059  0.1020E+02  0.2433E+03
     24.073  0.5710E+01  0.2434E+03
     24.087  0.3616E+01  0.2435E+03
     24.101  0.7628E+01  0.2436E+03
     24.114  0.2267E+01  0.2436E+03
     24.128  0.3386E+01  0.2436E+03
     24.142  0.1515E+02  0.2439E+03
     24.156  0.1248E+02  0.2440E+03
     24.170  0.1214E+02  0.2442E+03
     24.183  0.8666E+01  0.2443E+03
     24.197  0.3845E+01  0.2444E+03
     24.211  0.1532E+01  0.2444E+03
     24.225  0.1052E+02  0.2445E+03
     24.239  0.1379E+02  0.2447E+03
     24.252  0.6527E+01  0.2448E+03
     24.266  0.1134E+02  0.2450E+03
     24.280  0.1268E+02  0.2452E+03
     24.294  0.1044E+02  0.2453E+03
     24.308  0.7956E+01  0.2454E+03
     24.322  0.4948E+01  0.2455E+03
     24.335  0.1507E+02  0.2457E+03
     24.349  0.5014E+01  0.2458E+03
     24.363  0.1590E+01  0.2458E+03
     24.377  0.3853E+01  0.2458E+03
     24.391  0.6492E+00  0.2458E+03
     24.404  0.9378E+00  0.2458E+03
     24.418  0.2032E+01  0.2459E+03
     24.432  0.5269E+01  0.2459E+03
     24.446  0.9924E+01  0.2461E+03
     24.460  0.2800E+01  0.2461E+03
     24.473  0.1213E+01  0.2461E+03
     24.487  0.6568E+01  0.2462E+03
     24.501  0.7826E+01  0.2463E+03
     24.515  0.5113E+01  0.2464E+03
     24.529  0.8906E+01  0.2465E+03
     24.542  0.7048E+01  0.2466E+03
     24.556  0.5867E+01  0.2467E+03
     24.570  0.7268E+01  0.2468E+03
     24.584  0.9652E+01  0.2469E+03
     24.598  0.9362E+01  0.2471E+03
     24.612  0.1125E+02  0.2472E+03
     24.625  0.5915E+01  0.2473E+03
     24.639  0.5609E+01  0.2474E+03
     24.653  0.7278E+01  0.2475E+03
     24.667  0.8880E+01  0.2476E+03
     24.681  0.1675E+01  0.2476E+03
     24.694  0.4715E+01  0.2477E+03
     24.708  0.7110E+01  0.2478E+03
     24.722  0.1105E+02  0.2480E+03
     24.736  0.1364E+02  0.2481E+03
     24.750  0.8851E+01  0.2483E+03
     24.763  0.2245E+01  0.2483E+03
     24.777  0.3834E+01  0.2483E+03
     24.791  0.5333E+01  0.2484E+03
     24.805  0.6400E+01  0.2485E+03
     24.819  0.9666E+01  0.2486E+03
     24.833  0.1770E+02  0.2489E+03
     24.846  0.1370E+02  0.2491E+03
     24.860  0.3984E+01  0.2491E+03
     24.874  0.4746E+01  0.2492E+03
     24.888  0.6145E+01  0.2493E+03
     24.902  0.6110E+01  0.2494E+03
     24.915  0.9825E+01  0.2495E+03
     24.929  0.2606E+01  0.2495E+03
     24.943  0.2074E+01  0.2496E+03
     24.957  0.4085E+01  0.2496E+03
     24.971  0.2994E+01  0.2497E+03
     24.984  0.5955E+01  0.2497E+03
     24.998  0.2871E+01  0.2498E+03
     25.012  0.3800E+00  0.2498E+03
     25.026  0.3474E+01  0.2498E+03
     25.040  0.3719E+01  0.2499E+03
     25.053  0.5399E+01  0.2500E+03
     25.067  0.8018E+01  0.2501E+03
     25.081  0.1106E+02  0.2502E+03
     25.095  0.7655E+01  0.2503E+03
     25.109  0.8009E+01  0.2504E+03
     25.123  0.1129E+02  0.2506E+03
     25.136  0.4662E+01  0.2507E+03
     25.150  0.5714E+01  0.2507E+03
     25.164  0.5447E+01  0.2508E+03
     25.178  0.3343E+01  0.2509E+03
     25.192  0.7317E+01  0.2510E+03
     25.205  0.1050E+02  0.2511E+03
     25.219  0.5595E+01  0.2512E+03
     25.233  0.6103E+01  0.2513E+03
     25.247  0.4158E+01  0.2513E+03
     25.261  0.3461E+01  0.2514E+03
     25.274  0.7979E+01  0.2515E+03
     25.288  0.6038E+01  0.2516E+03
     25.302  0.3100E+01  0.2516E+03
     25.316  0.2819E+01  0.2517E+03
     25.330  0.3899E+01  0.2517E+03
     25.344  0.5637E+01  0.2518E+03
     25.357  0.5733E+01  0.2519E+03
     25.371  0.7648E+01  0.2520E+03
     25.385  0.1888E+01  0.2520E+03
     25.399  0.3134E+01  0.2520E+03
     25.413  0.5580E+01  0.2521E+03
     25.426  0.5774E+01  0.2522E+03
     25.440  0.7347E+01  0.2523E+03
     25.454  0.2037E+01  0.2523E+03
     25.468  0.3323E+01  0.2524E+03
     25.482  0.5623E+01  0.2524E+03
     25.495  0.7375E+01  0.2525E+03
     25.509  0.6761E+01  0.2526E+03
     25.523  0.3747E+01  0.2527E+03
     25.537  0.1200E+01  0.2527E+03
     25.551  0.1882E+01  0.2527E+03
     25.565  0.1539E+01  0.2528E+03
     25.578  0.5552E+01  0.2528E+03
     25.592  0.4341E+01  0.2529E+03
     25.606  0.8264E+00  0.2529E+03
     25.620  0.2112E+01  0.2529E+03
     25.634  0.5857E+01  0.2530E+03
     25.647  0.3103E+01  0.2531E+03
     25.661  0.5579E+01  0.2531E+03
     25.675  0.1120E+02  0.2533E+03
     25.689  0.9156E+01  0.2534E+03
     25.703  0.6632E+01  0.2535E+03
     25.716  0.5218E+01  0.2536E+03
     25.730  0.5077E+01  0.2537E+03
     25.744  0.3418E+01  0.2537E+03
     25.758  0.2703E+00  0.2537E+03
     25.772  0.1435E+01  0.2537E+03
     25.785  0.4327E+01  0.2538E+03
     25.799  0.2634E+01  0.2538E+03
     25.813  0.6380E+00  0.2538E+03
     25.827  0.1867E+01  0.2539E+03
     25.841  0.3688E+01  0.2539E+03
     25.855  0.4957E+00  0.2539E+03
     25.868  0.1433E+01  0.2539E+03
     25.882  0.1422E+01  0.2540E+03
     25.896  0.7723E-01  0.2540E+03
     25.910  0.3591E+00  0.2540E+03
     25.924  0.4763E+01  0.2540E+03
     25.937  0.9914E+01  0.2542E+03
     25.951  0.1021E+02  0.2543E+03
     25.965  0.9634E+01  0.2544E+03
     25.979  0.5916E+01  0.2545E+03
     25.993  0.4208E+01  0.2546E+03
     26.006  0.5914E+00  0.2546E+03
     26.020  0.4052E-02  0.2546E+03
     26.034  0.1496E+00  0.2546E+03
     26.048  0.1716E+01  0.2546E+03
     26.062  0.1108E+01  0.2546E+03
     26.076  0.4480E+00  0.2546E+03
     26.089  0.2009E+01  0.2547E+03
     26.103  0.6305E+00  0.2547E+03
     26.117  0.3369E+00  0.2547E+03
     26.131  0.1131E+00  0.2547E+03
     26.145  0.5419E-02  0.2547E+03
     26.158  0.4183E+00  0.2547E+03
     26.172  0.2010E+01  0.2547E+03
     26.186  0.5773E+00  0.2547E+03
     26.200  0.7182E+00  0.2547E+03
     26.214  0.3730E+01  0.2548E+03
     26.227  0.4099E+01  0.2548E+03
     26.241  0.4667E+00  0.2548E+03
     26.255  0.2669E-01  0.2548E+03
     26.269  0.9621E+00  0.2549E+03
     26.283  0.2519E+01  0.2549E+03
     26.296  0.5318E+01  0.2550E+03
     26.310  0.3049E+01  0.2550E+03
     26.324  0.1519E+00  0.2550E+03
     26.338  0.3786E-03  0.2550E+03
     26.352  0.2893E-07  0.2550E+03
     26.366  0.1448E-04  0.2550E+03
     26.379  0.2075E-01  0.2550E+03
     26.393  0.1162E+01  0.2550E+03
     26.407  0.6916E+01  0.2551E+03
     26.421  0.9219E+01  0.2552E+03
     26.435  0.3573E+01  0.2553E+03
     26.448  0.1542E+00  0.2553E+03
     26.462  0.6345E-03  0.2553E+03
     26.476  0.1303E+00  0.2553E+03
     26.490  0.1747E+01  0.2553E+03
     26.504  0.1514E+01  0.2553E+03
     26.517  0.1153E+00  0.2553E+03
     26.531  0.2886E-01  0.2553E+03
     26.545  0.1011E+01  0.2554E+03
     26.559  0.1788E+01  0.2554E+03
     26.573  0.1794E+00  0.2554E+03
     26.587  0.6764E-03  0.2554E+03
     26.600  0.7075E-07  0.2554E+03
     26.614  0.1826E-12  0.2554E+03
     26.628  0.0000E+00  0.2554E+03
     26.642  0.3635E-09  0.2554E+03
     26.656  0.2192E-04  0.2554E+03
     26.669  0.3409E-01  0.2554E+03
     26.683  0.1658E+01  0.2554E+03
     26.697  0.3816E+01  0.2555E+03
     26.711  0.6943E+00  0.2555E+03
     26.725  0.1410E+01  0.2555E+03
     26.738  0.1757E+01  0.2555E+03
     26.752  0.1515E+00  0.2555E+03
     26.766  0.4913E-03  0.2555E+03
     26.780  0.4388E-07  0.2555E+03
     26.794  0.1214E-08  0.2555E+03
     26.808  0.4188E-04  0.2555E+03
     26.821  0.3796E-01  0.2555E+03
     26.835  0.1129E+01  0.2555E+03
     26.849  0.1780E+01  0.2556E+03
     26.863  0.2532E+01  0.2556E+03
     26.877  0.5050E+01  0.2557E+03
     26.890  0.3921E+01  0.2557E+03
     26.904  0.5777E+00  0.2557E+03
     26.918  0.4647E-02  0.2557E+03
     26.932  0.1229E-05  0.2557E+03
     26.946  0.8527E-11  0.2557E+03
     26.959  0.4009E-11  0.2557E+03
     26.973  0.4277E-06  0.2557E+03
     26.987  0.1158E-02  0.2557E+03
     27.001  0.9390E-01  0.2557E+03
     27.015  0.3352E+00  0.2557E+03
     27.028  0.7022E-01  0.2557E+03
     27.042  0.6179E-03  0.2557E+03
     27.056  0.1588E-06  0.2557E+03
     27.070  0.4588E-08  0.2557E+03
     27.084  0.1337E-03  0.2557E+03
     27.098  0.1031E+00  0.2557E+03
     27.111  0.2650E+01  0.2558E+03
     27.125  0.3508E+01  0.2558E+03
     27.139  0.6773E+00  0.2558E+03
     27.153  0.2012E+01  0.2559E+03
     27.167  0.5635E+00  0.2559E+03
     27.180  0.1012E+00  0.2559E+03
     27.194  0.1520E+01  0.2559E+03
     27.208  0.1331E+01  0.2559E+03
     27.222  0.6118E-01  0.2559E+03
     27.236  0.9556E-04  0.2559E+03
     27.249  0.3974E-08  0.2559E+03
     27.263  0.9422E-10  0.2559E+03
     27.277  0.4081E-05  0.2559E+03
     27.291  0.4608E-02  0.2559E+03
     27.305  0.1673E+00  0.2559E+03
     27.319  0.2990E+00  0.2559E+03
     27.332  0.1319E+00  0.2559E+03
     27.346  0.1555E+01  0.2559E+03
     27.360  0.1597E+01  0.2560E+03
     27.374  0.2010E+01  0.2560E+03
     27.388  0.7365E+00  0.2560E+03
     27.401  0.1282E-01  0.2560E+03
     27.415  0.6878E-05  0.2560E+03
     27.429  0.9463E-10  0.2560E+03
     27.443  0.0000E+00  0.2560E+03
     27.457  0.0000E+00  0.2560E+03
     27.470  0.0000E+00  0.2560E+03
     27.484  0.0000E+00  0.2560E+03
     27.498  0.0000E+00  0.2560E+03
     27.512  0.0000E+00  0.2560E+03
     27.526  0.0000E+00  0.2560E+03
     27.539  0.0000E+00  0.2560E+03
     27.553  0.0000E+00  0.2560E+03
     27.567  0.0000E+00  0.2560E+03
     27.581  0.0000E+00  0.2560E+03
     27.595  0.0000E+00  0.2560E+03
     27.609  0.0000E+00  0.2560E+03
     27.622  0.0000E+00  0.2560E+03
     27.636  0.0000E+00  0.2560E+03
     27.650  0.0000E+00  0.2560E+03
     27.664  0.0000E+00  0.2560E+03
     27.678  0.0000E+00  0.2560E+03
     27.691  0.0000E+00  0.2560E+03
     27.705  0.0000E+00  0.2560E+03
     27.719  0.0000E+00  0.2560E+03
     27.733  0.2782E-16  0.2560E+03
     27.747  0.7293E-10  0.2560E+03
     27.760  0.3407E-05  0.2560E+03
     27.774  0.4137E-02  0.2560E+03
     27.788  0.1605E+00  0.2560E+03
     27.802  0.3036E+00  0.2560E+03
     27.816  0.3274E-01  0.2560E+03
     27.830  0.1341E-03  0.2560E+03
     27.843  0.1530E-07  0.2560E+03
     27.857  0.4317E-13  0.2560E+03
     27.871  0.0000E+00  0.2560E+03
     27.885  0.0000E+00  0.2560E+03
     27.899  0.0000E+00  0.2560E+03
     27.912  0.0000E+00  0.2560E+03
     27.926  0.0000E+00  0.2560E+03
     27.940  0.0000E+00  0.2560E+03
     27.954  0.0000E+00  0.2560E+03
     27.968  0.0000E+00  0.2560E+03
     27.981  0.0000E+00  0.2560E+03
     27.995  0.0000E+00  0.2560E+03
     28.009  0.0000E+00  0.2560E+03
     28.023  0.0000E+00  0.2560E+03
     28.037  0.0000E+00  0.2560E+03
     28.051  0.0000E+00  0.2560E+03
     28.064  0.0000E+00  0.2560E+03
     28.078  0.0000E+00  0.2560E+03
     28.092  0.0000E+00  0.2560E+03
     28.106  0.0000E+00  0.2560E+03
     28.120  0.0000E+00  0.2560E+03
     28.133  0.0000E+00  0.2560E+03
     28.147  0.0000E+00  0.2560E+03
     28.161  0.0000E+00  0.2560E+03
     28.175  0.0000E+00  0.2560E+03
     28.189  0.0000E+00  0.2560E+03
     28.202  0.0000E+00  0.2560E+03
     28.216  0.0000E+00  0.2560E+03
     28.230  0.0000E+00  0.2560E+03
     28.244  0.0000E+00  0.2560E+03
     28.258  0.0000E+00  0.2560E+03
     28.271  0.0000E+00  0.2560E+03
     28.285  0.0000E+00  0.2560E+03
     28.299  0.0000E+00  0.2560E+03
     28.313  0.0000E+00  0.2560E+03
     28.327  0.0000E+00  0.2560E+03
     28.341  0.0000E+00  0.2560E+03
     28.354  0.0000E+00  0.2560E+03
     28.368  0.0000E+00  0.2560E+03
     28.382  0.0000E+00  0.2560E+03
     28.396  0.0000E+00  0.2560E+03
     28.410  0.0000E+00  0.2560E+03
     28.423  0.0000E+00  0.2560E+03
     28.437  0.0000E+00  0.2560E+03
     28.451  0.0000E+00  0.2560E+03
     28.465  0.0000E+00  0.2560E+03
     28.479  0.0000E+00  0.2560E+03
     28.492  0.0000E+00  0.2560E+03
     28.506  0.0000E+00  0.2560E+03
     28.520  0.0000E+00  0.2560E+03
     28.534  0.0000E+00  0.2560E+03
     28.548  0.0000E+00  0.2560E+03
     28.562  0.0000E+00  0.2560E+03
     28.575  0.0000E+00  0.2560E+03
     28.589  0.0000E+00  0.2560E+03
     28.603  0.0000E+00  0.2560E+03
     28.617  0.0000E+00  0.2560E+03
     28.631  0.0000E+00  0.2560E+03
     28.644  0.0000E+00  0.2560E+03
     28.658  0.0000E+00  0.2560E+03
     28.672  0.0000E+00  0.2560E+03
     28.686  0.0000E+00  0.2560E+03
     28.700  0.0000E+00  0.2560E+03
     28.713  0.0000E+00  0.2560E+03
     28.727  0.0000E+00  0.2560E+03
     28.741  0.0000E+00  0.2560E+03
     28.755  0.0000E+00  0.2560E+03
     28.769  0.0000E+00  0.2560E+03
     28.782  0.0000E+00  0.2560E+03
     28.796  0.0000E+00  0.2560E+03
     28.810  0.0000E+00  0.2560E+03
     28.824  0.0000E+00  0.2560E+03
     28.838  0.0000E+00  0.2560E+03
     28.852  0.0000E+00  0.2560E+03
     28.865  0.0000E+00  0.2560E+03
     28.879  0.0000E+00  0.2560E+03
     28.893  0.0000E+00  0.2560E+03
     28.907  0.0000E+00  0.2560E+03
     28.921  0.0000E+00  0.2560E+03
     28.934  0.0000E+00  0.2560E+03
     28.948  0.0000E+00  0.2560E+03
     28.962  0.0000E+00  0.2560E+03
     28.976  0.0000E+00  0.2560E+03
     28.990  0.0000E+00  0.2560E+03
     29.003  0.0000E+00  0.2560E+03
     29.017  0.0000E+00  0.2560E+03
     29.031  0.0000E+00  0.2560E+03
     29.045  0.0000E+00  0.2560E+03
     29.059  0.0000E+00  0.2560E+03
     29.073  0.0000E+00  0.2560E+03
     29.086  0.0000E+00  0.2560E+03
     29.100  0.0000E+00  0.2560E+03
     29.114  0.0000E+00  0.2560E+03
     29.128  0.0000E+00  0.2560E+03
     29.142  0.0000E+00  0.2560E+03
     29.155  0.0000E+00  0.2560E+03
     29.169  0.0000E+00  0.2560E+03
     29.183  0.0000E+00  0.2560E+03
     29.197  0.0000E+00  0.2560E+03
     29.211  0.0000E+00  0.2560E+03
     29.224  0.0000E+00  0.2560E+03
     29.238  0.0000E+00  0.2560E+03
     29.252  0.0000E+00  0.2560E+03
     29.266  0.0000E+00  0.2560E+03
     29.280  0.0000E+00  0.2560E+03
     29.293  0.0000E+00  0.2560E+03
     29.307  0.0000E+00  0.2560E+03
     29.321  0.0000E+00  0.2560E+03
     29.335  0.0000E+00  0.2560E+03
     29.349  0.0000E+00  0.2560E+03
     29.363  0.0000E+00  0.2560E+03
     29.376  0.0000E+00  0.2560E+03
     29.390  0.0000E+00  0.2560E+03
     29.404  0.0000E+00  0.2560E+03
     29.418  0.0000E+00  0.2560E+03
     29.432  0.0000E+00  0.2560E+03
     29.445  0.0000E+00  0.2560E+03
     29.459  0.0000E+00  0.2560E+03
     29.473  0.0000E+00  0.2560E+03
     29.487  0.0000E+00  0.2560E+03
     29.501  0.0000E+00  0.2560E+03
     29.514  0.0000E+00  0.2560E+03
     29.528  0.0000E+00  0.2560E+03
     29.542  0.0000E+00  0.2560E+03
     29.556  0.0000E+00  0.2560E+03
     29.570  0.0000E+00  0.2560E+03
     29.584  0.0000E+00  0.2560E+03
     29.597  0.0000E+00  0.2560E+03
     29.611  0.0000E+00  0.2560E+03
     29.625  0.0000E+00  0.2560E+03
     29.639  0.0000E+00  0.2560E+03
     29.653  0.0000E+00  0.2560E+03
     29.666  0.0000E+00  0.2560E+03
     29.680  0.0000E+00  0.2560E+03
     29.694  0.0000E+00  0.2560E+03
     29.708  0.0000E+00  0.2560E+03
     29.722  0.0000E+00  0.2560E+03
     29.735  0.0000E+00  0.2560E+03
     29.749  0.0000E+00  0.2560E+03
     29.763  0.0000E+00  0.2560E+03
     29.777  0.0000E+00  0.2560E+03
     29.791  0.0000E+00  0.2560E+03
     29.805  0.0000E+00  0.2560E+03
     29.818  0.0000E+00  0.2560E+03
     29.832  0.0000E+00  0.2560E+03
     29.846  0.0000E+00  0.2560E+03
     29.860  0.0000E+00  0.2560E+03
     29.874  0.0000E+00  0.2560E+03
     29.887  0.0000E+00  0.2560E+03
     29.901  0.0000E+00  0.2560E+03
     29.915  0.0000E+00  0.2560E+03
     29.929  0.0000E+00  0.2560E+03
     29.943  0.0000E+00  0.2560E+03
     29.956  0.0000E+00  0.2560E+03
     29.970  0.0000E+00  0.2560E+03
     29.984  0.0000E+00  0.2560E+03
     29.998  0.0000E+00  0.2560E+03
     30.012  0.0000E+00  0.2560E+03
     30.025  0.0000E+00  0.2560E+03
     30.039  0.0000E+00  0.2560E+03
     30.053  0.0000E+00  0.2560E+03
     30.067  0.0000E+00  0.2560E+03
     30.081  0.0000E+00  0.2560E+03
     30.095  0.0000E+00  0.2560E+03
     30.108  0.0000E+00  0.2560E+03
     30.122  0.0000E+00  0.2560E+03
     30.136  0.0000E+00  0.2560E+03
     30.150  0.0000E+00  0.2560E+03
     30.164  0.0000E+00  0.2560E+03
     30.177  0.0000E+00  0.2560E+03
     30.191  0.0000E+00  0.2560E+03
     30.205  0.0000E+00  0.2560E+03
     30.219  0.0000E+00  0.2560E+03
     30.233  0.0000E+00  0.2560E+03
     30.246  0.0000E+00  0.2560E+03
     30.260  0.0000E+00  0.2560E+03
     30.274  0.0000E+00  0.2560E+03
     30.288  0.0000E+00  0.2560E+03
     30.302  0.0000E+00  0.2560E+03
