  16  16   0   0
  0.2012733E+02  0.4979000E-09  0.4979000E-09  0.1500000E-08  0.5000000E-15
  1.000000000000000E-004
  CAR 
 Dielectric_function                     
     30.05457273    -24.91699958 4000     -0.33813258      1.00000000
    -24.917  0.0000E+00  0.0000E+00
    -24.903  0.0000E+00  0.0000E+00
    -24.890  0.0000E+00  0.0000E+00
    -24.876  0.0000E+00  0.0000E+00
    -24.862  0.0000E+00  0.0000E+00
    -24.848  0.0000E+00  0.0000E+00
    -24.835  0.0000E+00  0.0000E+00
    -24.821  0.0000E+00  0.0000E+00
    -24.807  0.0000E+00  0.0000E+00
    -24.793  0.0000E+00  0.0000E+00
    -24.780  0.0000E+00  0.0000E+00
    -24.766  0.0000E+00  0.0000E+00
    -24.752  0.0000E+00  0.0000E+00
    -24.738  0.0000E+00  0.0000E+00
    -24.725  0.0000E+00  0.0000E+00
    -24.711  0.0000E+00  0.0000E+00
    -24.697  0.0000E+00  0.0000E+00
    -24.683  0.0000E+00  0.0000E+00
    -24.670  0.0000E+00  0.0000E+00
    -24.656  0.0000E+00  0.0000E+00
    -24.642  0.0000E+00  0.0000E+00
    -24.628  0.0000E+00  0.0000E+00
    -24.615  0.0000E+00  0.0000E+00
    -24.601  0.0000E+00  0.0000E+00
    -24.587  0.0000E+00  0.0000E+00
    -24.573  0.0000E+00  0.0000E+00
    -24.560  0.0000E+00  0.0000E+00
    -24.546  0.0000E+00  0.0000E+00
    -24.532  0.0000E+00  0.0000E+00
    -24.518  0.0000E+00  0.0000E+00
    -24.505  0.0000E+00  0.0000E+00
    -24.491  0.0000E+00  0.0000E+00
    -24.477  0.0000E+00  0.0000E+00
    -24.463  0.0000E+00  0.0000E+00
    -24.450  0.0000E+00  0.0000E+00
    -24.436  0.0000E+00  0.0000E+00
    -24.422  0.0000E+00  0.0000E+00
    -24.408  0.0000E+00  0.0000E+00
    -24.395  0.0000E+00  0.0000E+00
    -24.381  0.0000E+00  0.0000E+00
    -24.367  0.0000E+00  0.0000E+00
    -24.353  0.0000E+00  0.0000E+00
    -24.340  0.0000E+00  0.0000E+00
    -24.326  0.0000E+00  0.0000E+00
    -24.312  0.0000E+00  0.0000E+00
    -24.298  0.0000E+00  0.0000E+00
    -24.285  0.0000E+00  0.0000E+00
    -24.271  0.0000E+00  0.0000E+00
    -24.257  0.0000E+00  0.0000E+00
    -24.243  0.0000E+00  0.0000E+00
    -24.230  0.0000E+00  0.0000E+00
    -24.216  0.0000E+00  0.0000E+00
    -24.202  0.0000E+00  0.0000E+00
    -24.188  0.0000E+00  0.0000E+00
    -24.175  0.0000E+00  0.0000E+00
    -24.161  0.0000E+00  0.0000E+00
    -24.147  0.0000E+00  0.0000E+00
    -24.133  0.0000E+00  0.0000E+00
    -24.120  0.0000E+00  0.0000E+00
    -24.106  0.0000E+00  0.0000E+00
    -24.092  0.0000E+00  0.0000E+00
    -24.078  0.0000E+00  0.0000E+00
    -24.065  0.0000E+00  0.0000E+00
    -24.051  0.0000E+00  0.0000E+00
    -24.037  0.0000E+00  0.0000E+00
    -24.023  0.0000E+00  0.0000E+00
    -24.010  0.0000E+00  0.0000E+00
    -23.996  0.0000E+00  0.0000E+00
    -23.982  0.0000E+00  0.0000E+00
    -23.969  0.0000E+00  0.0000E+00
    -23.955  0.0000E+00  0.0000E+00
    -23.941  0.0000E+00  0.0000E+00
    -23.927  0.0000E+00  0.0000E+00
    -23.914  0.0000E+00  0.0000E+00
    -23.900  0.0000E+00  0.0000E+00
    -23.886  0.0000E+00  0.0000E+00
    -23.872  0.0000E+00  0.0000E+00
    -23.859  0.0000E+00  0.0000E+00
    -23.845  0.0000E+00  0.0000E+00
    -23.831  0.0000E+00  0.0000E+00
    -23.817  0.0000E+00  0.0000E+00
    -23.804  0.0000E+00  0.0000E+00
    -23.790  0.0000E+00  0.0000E+00
    -23.776  0.0000E+00  0.0000E+00
    -23.762  0.0000E+00  0.0000E+00
    -23.749  0.0000E+00  0.0000E+00
    -23.735  0.0000E+00  0.0000E+00
    -23.721  0.0000E+00  0.0000E+00
    -23.707  0.0000E+00  0.0000E+00
    -23.694  0.0000E+00  0.0000E+00
    -23.680  0.0000E+00  0.0000E+00
    -23.666  0.0000E+00  0.0000E+00
    -23.652  0.0000E+00  0.0000E+00
    -23.639  0.0000E+00  0.0000E+00
    -23.625  0.0000E+00  0.0000E+00
    -23.611  0.0000E+00  0.0000E+00
    -23.597  0.0000E+00  0.0000E+00
    -23.584  0.0000E+00  0.0000E+00
    -23.570  0.0000E+00  0.0000E+00
    -23.556  0.0000E+00  0.0000E+00
    -23.542  0.0000E+00  0.0000E+00
    -23.529  0.0000E+00  0.0000E+00
    -23.515  0.0000E+00  0.0000E+00
    -23.501  0.0000E+00  0.0000E+00
    -23.487  0.0000E+00  0.0000E+00
    -23.474  0.0000E+00  0.0000E+00
    -23.460  0.0000E+00  0.0000E+00
    -23.446  0.0000E+00  0.0000E+00
    -23.432  0.0000E+00  0.0000E+00
    -23.419  0.0000E+00  0.0000E+00
    -23.405  0.0000E+00  0.0000E+00
    -23.391  0.0000E+00  0.0000E+00
    -23.377  0.0000E+00  0.0000E+00
    -23.364  0.0000E+00  0.0000E+00
    -23.350  0.0000E+00  0.0000E+00
    -23.336  0.0000E+00  0.0000E+00
    -23.322  0.0000E+00  0.0000E+00
    -23.309  0.0000E+00  0.0000E+00
    -23.295  0.0000E+00  0.0000E+00
    -23.281  0.0000E+00  0.0000E+00
    -23.267  0.0000E+00  0.0000E+00
    -23.254  0.0000E+00  0.0000E+00
    -23.240  0.0000E+00  0.0000E+00
    -23.226  0.0000E+00  0.0000E+00
    -23.212  0.0000E+00  0.0000E+00
    -23.199  0.0000E+00  0.0000E+00
    -23.185  0.0000E+00  0.0000E+00
    -23.171  0.0000E+00  0.0000E+00
    -23.157  0.0000E+00  0.0000E+00
    -23.144  0.0000E+00  0.0000E+00
    -23.130  0.0000E+00  0.0000E+00
    -23.116  0.0000E+00  0.0000E+00
    -23.102  0.0000E+00  0.0000E+00
    -23.089  0.0000E+00  0.0000E+00
    -23.075  0.0000E+00  0.0000E+00
    -23.061  0.0000E+00  0.0000E+00
    -23.047  0.0000E+00  0.0000E+00
    -23.034  0.0000E+00  0.0000E+00
    -23.020  0.0000E+00  0.0000E+00
    -23.006  0.0000E+00  0.0000E+00
    -22.993  0.0000E+00  0.0000E+00
    -22.979  0.0000E+00  0.0000E+00
    -22.965  0.0000E+00  0.0000E+00
    -22.951  0.0000E+00  0.0000E+00
    -22.938  0.0000E+00  0.0000E+00
    -22.924  0.0000E+00  0.0000E+00
    -22.910  0.0000E+00  0.0000E+00
    -22.896  0.0000E+00  0.0000E+00
    -22.883  0.0000E+00  0.0000E+00
    -22.869  0.0000E+00  0.0000E+00
    -22.855  0.0000E+00  0.0000E+00
    -22.841  0.0000E+00  0.0000E+00
    -22.828  0.0000E+00  0.0000E+00
    -22.814  0.0000E+00  0.0000E+00
    -22.800  0.0000E+00  0.0000E+00
    -22.786  0.0000E+00  0.0000E+00
    -22.773  0.0000E+00  0.0000E+00
    -22.759  0.0000E+00  0.0000E+00
    -22.745  0.0000E+00  0.0000E+00
    -22.731  0.0000E+00  0.0000E+00
    -22.718  0.0000E+00  0.0000E+00
    -22.704  0.0000E+00  0.0000E+00
    -22.690  0.0000E+00  0.0000E+00
    -22.676  0.0000E+00  0.0000E+00
    -22.663  0.0000E+00  0.0000E+00
    -22.649  0.0000E+00  0.0000E+00
    -22.635  0.0000E+00  0.0000E+00
    -22.621  0.0000E+00  0.0000E+00
    -22.608  0.0000E+00  0.0000E+00
    -22.594  0.0000E+00  0.0000E+00
    -22.580  0.0000E+00  0.0000E+00
    -22.566  0.0000E+00  0.0000E+00
    -22.553  0.0000E+00  0.0000E+00
    -22.539  0.0000E+00  0.0000E+00
    -22.525  0.0000E+00  0.0000E+00
    -22.511  0.0000E+00  0.0000E+00
    -22.498  0.0000E+00  0.0000E+00
    -22.484  0.0000E+00  0.0000E+00
    -22.470  0.5612E-13  0.7714E-15
    -22.456  0.1771E-07  0.2435E-09
    -22.443  0.1431E-03  0.1967E-05
    -22.429  0.3335E-01  0.4604E-03
    -22.415  0.3159E+00  0.4803E-02
    -22.401  0.8646E+00  0.1669E-01
    -22.388  0.1978E+01  0.4388E-01
    -22.374  0.3333E+00  0.4846E-01
    -22.360  0.4127E+00  0.5413E-01
    -22.346  0.2046E+01  0.8227E-01
    -22.333  0.1695E+01  0.1056E+00
    -22.319  0.1731E+01  0.1294E+00
    -22.305  0.1538E+00  0.1315E+00
    -22.291  0.9903E-03  0.1315E+00
    -22.278  0.1988E+00  0.1342E+00
    -22.264  0.3075E+01  0.1765E+00
    -22.250  0.2645E+01  0.2129E+00
    -22.236  0.1630E+00  0.2151E+00
    -22.223  0.1154E+01  0.2310E+00
    -22.209  0.1685E+01  0.2541E+00
    -22.195  0.1401E+00  0.2560E+00
    -22.181  0.7310E-03  0.2561E+00
    -22.168  0.1123E+00  0.2576E+00
    -22.154  0.1601E+01  0.2796E+00
    -22.140  0.2224E+01  0.3102E+00
    -22.126  0.4094E+01  0.3665E+00
    -22.113  0.1019E+01  0.3805E+00
    -22.099  0.1144E-01  0.3806E+00
    -22.085  0.1848E-01  0.3809E+00
    -22.072  0.8496E+00  0.3926E+00
    -22.058  0.1901E+01  0.4187E+00
    -22.044  0.2504E+00  0.4221E+00
    -22.030  0.1509E-02  0.4221E+00
    -22.017  0.1172E+00  0.4238E+00
    -22.003  0.2611E+01  0.4596E+00
    -21.989  0.3107E+01  0.5024E+00
    -21.975  0.2532E+00  0.5058E+00
    -21.962  0.1872E+01  0.5316E+00
    -21.948  0.3695E+01  0.5824E+00
    -21.934  0.4260E+00  0.5882E+00
    -21.920  0.1936E-02  0.5882E+00
    -21.907  0.8887E-06  0.5882E+00
    -21.893  0.2771E-02  0.5883E+00
    -21.879  0.3617E+00  0.5932E+00
    -21.865  0.1992E+01  0.6206E+00
    -21.852  0.6552E+00  0.6296E+00
    -21.838  0.2055E+00  0.6325E+00
    -21.824  0.1840E+01  0.6578E+00
    -21.810  0.2395E+01  0.6907E+00
    -21.797  0.3971E+01  0.7453E+00
    -21.783  0.6550E+00  0.7543E+00
    -21.769  0.4630E-02  0.7543E+00
    -21.755  0.8494E-01  0.7555E+00
    -21.742  0.2337E+01  0.7876E+00
    -21.728  0.3346E+01  0.8336E+00
    -21.714  0.2724E+00  0.8374E+00
    -21.700  0.8332E-03  0.8374E+00
    -21.687  0.7224E-07  0.8374E+00
    -21.673  0.4163E-08  0.8374E+00
    -21.659  0.9508E-04  0.8374E+00
    -21.645  0.5978E-01  0.8382E+00
    -21.632  0.1318E+01  0.8563E+00
    -21.618  0.2185E+01  0.8863E+00
    -21.604  0.4035E+01  0.9418E+00
    -21.590  0.1440E+01  0.9616E+00
    -21.577  0.3731E+00  0.9667E+00
    -21.563  0.3545E+01  0.1015E+01
    -21.549  0.2084E+01  0.1044E+01
    -21.535  0.6219E-01  0.1045E+01
    -21.522  0.6200E-04  0.1045E+01
    -21.508  0.9482E-04  0.1045E+01
    -21.494  0.7989E-01  0.1046E+01
    -21.480  0.2286E+01  0.1078E+01
    -21.467  0.3388E+01  0.1124E+01
    -21.453  0.2864E+00  0.1128E+01
    -21.439  0.9143E-03  0.1128E+01
    -21.425  0.8291E-07  0.1128E+01
    -21.412  0.5030E-08  0.1128E+01
    -21.398  0.1084E-03  0.1128E+01
    -21.384  0.6442E-01  0.1129E+01
    -21.370  0.1354E+01  0.1148E+01
    -21.357  0.2526E+01  0.1182E+01
    -21.343  0.6029E+01  0.1265E+01
    -21.329  0.2075E+01  0.1294E+01
    -21.315  0.3396E-01  0.1294E+01
    -21.302  0.2449E-01  0.1294E+01
    -21.288  0.1430E+01  0.1314E+01
    -21.274  0.3937E+01  0.1368E+01
    -21.260  0.6445E+00  0.1377E+01
    -21.247  0.4380E-02  0.1377E+01
    -21.233  0.8824E-06  0.1377E+01
    -21.219  0.7949E-09  0.1377E+01
    -21.205  0.3652E-04  0.1377E+01
    -21.192  0.4533E-01  0.1378E+01
    -21.178  0.1844E+01  0.1403E+01
    -21.164  0.3712E+01  0.1454E+01
    -21.151  0.4370E+00  0.1460E+01
    -21.137  0.2034E-02  0.1460E+01
    -21.123  0.2574E-05  0.1460E+01
    -21.109  0.8126E-02  0.1460E+01
    -21.096  0.8695E+00  0.1472E+01
    -21.082  0.4031E+01  0.1528E+01
    -21.068  0.1122E+01  0.1543E+01
    -21.054  0.5458E+00  0.1551E+01
    -21.041  0.3858E+01  0.1604E+01
    -21.027  0.2508E+01  0.1638E+01
    -21.013  0.1921E+01  0.1665E+01
    -20.999  0.2397E+00  0.1668E+01
    -20.986  0.1550E-02  0.1668E+01
    -20.972  0.1642E+00  0.1670E+01
    -20.958  0.2906E+01  0.1710E+01
    -20.944  0.2821E+01  0.1749E+01
    -20.931  0.1490E+00  0.1751E+01
    -20.917  0.2800E-03  0.1751E+01
    -20.903  0.1458E-07  0.1751E+01
    -20.889  0.1895E-13  0.1751E+01
    -20.876  0.3096E-09  0.1751E+01
    -20.862  0.1607E-04  0.1751E+01
    -20.848  0.2380E-01  0.1751E+01
    -20.834  0.1290E+01  0.1769E+01
    -20.821  0.3891E+01  0.1822E+01
    -20.807  0.8314E+00  0.1834E+01
    -20.793  0.4520E+00  0.1840E+01
    -20.779  0.2111E+01  0.1869E+01
    -20.766  0.2978E+01  0.1910E+01
    -20.752  0.3276E+01  0.1955E+01
    -20.738  0.2488E+00  0.1958E+01
    -20.724  0.2693E-02  0.1959E+01
    -20.711  0.3842E+00  0.1964E+01
    -20.697  0.3455E+01  0.2011E+01
    -20.683  0.2121E+01  0.2040E+01
    -20.669  0.1727E+00  0.2043E+01
    -20.656  0.1509E+01  0.2064E+01
    -20.642  0.1353E+01  0.2082E+01
    -20.628  0.6530E-01  0.2083E+01
    -20.614  0.4224E-02  0.2083E+01
    -20.601  0.6247E+00  0.2092E+01
    -20.587  0.3923E+01  0.2146E+01
    -20.573  0.1464E+01  0.2166E+01
    -20.559  0.2582E-01  0.2166E+01
    -20.546  0.1449E-04  0.2166E+01
    -20.532  0.2160E-09  0.2166E+01
    -20.518  0.0000E+00  0.2166E+01
    -20.504  0.0000E+00  0.2166E+01
    -20.491  0.5718E-10  0.2166E+01
    -20.477  0.5679E-05  0.2166E+01
    -20.463  0.1640E-01  0.2166E+01
    -20.449  0.1638E+01  0.2189E+01
    -20.436  0.7909E+01  0.2298E+01
    -20.422  0.2483E+01  0.2332E+01
    -20.408  0.5886E+00  0.2340E+01
    -20.394  0.3857E+01  0.2393E+01
    -20.381  0.1600E+01  0.2415E+01
    -20.367  0.3193E-01  0.2415E+01
    -20.353  0.2053E-04  0.2415E+01
    -20.339  0.5471E-03  0.2415E+01
    -20.326  0.2165E+00  0.2418E+01
    -20.312  0.3150E+01  0.2462E+01
    -20.298  0.2563E+01  0.2497E+01
    -20.284  0.1110E+00  0.2498E+01
    -20.271  0.2738E-02  0.2498E+01
    -20.257  0.3487E+00  0.2503E+01
    -20.243  0.1985E+01  0.2530E+01
    -20.230  0.6736E+00  0.2540E+01
    -20.216  0.1068E-01  0.2540E+01
    -20.202  0.4121E-01  0.2540E+01
    -20.188  0.1776E+01  0.2565E+01
    -20.175  0.3756E+01  0.2616E+01
    -20.161  0.4662E+00  0.2623E+01
    -20.147  0.2305E-02  0.2623E+01
    -20.133  0.3315E-06  0.2623E+01
    -20.120  0.8342E-08  0.2623E+01
    -20.106  0.1535E-03  0.2623E+01
    -20.092  0.7849E-01  0.2624E+01
    -20.078  0.1444E+01  0.2644E+01
    -20.065  0.2330E+01  0.2676E+01
    -20.051  0.3999E+01  0.2731E+01
    -20.037  0.1194E+01  0.2747E+01
    -20.023  0.5608E+00  0.2755E+01
    -20.010  0.3905E+01  0.2809E+01
    -19.996  0.3634E+01  0.2859E+01
    -19.982  0.3627E+01  0.2908E+01
    -19.968  0.3712E+00  0.2913E+01
    -19.955  0.1487E-02  0.2913E+01
    -19.941  0.1713E-06  0.2913E+01
    -19.927  0.2801E-07  0.2913E+01
    -19.913  0.4379E-03  0.2914E+01
    -19.900  0.1915E+00  0.2916E+01
    -19.886  0.3042E+01  0.2958E+01
    -19.872  0.2680E+01  0.2995E+01
    -19.858  0.1269E+00  0.2997E+01
    -19.845  0.2112E-03  0.2997E+01
    -19.831  0.4281E-04  0.2997E+01
    -19.817  0.3762E-01  0.2997E+01
    -19.803  0.1118E+01  0.3012E+01
    -19.790  0.1714E+01  0.3036E+01
    -19.776  0.1503E+00  0.3038E+01
    -19.762  0.2272E-02  0.3038E+01
    -19.748  0.4069E+00  0.3044E+01
    -19.735  0.3662E+01  0.3094E+01
    -19.721  0.1920E+01  0.3120E+01
    -19.707  0.5025E-01  0.3121E+01
    -19.693  0.2660E-01  0.3121E+01
    -19.680  0.1481E+01  0.3142E+01
    -19.666  0.3915E+01  0.3196E+01
    -19.652  0.6307E+00  0.3204E+01
    -19.638  0.1201E+01  0.3221E+01
    -19.625  0.4015E+01  0.3276E+01
    -19.611  0.8054E+00  0.3287E+01
    -19.597  0.6921E-02  0.3287E+01
    -19.583  0.5973E-05  0.3287E+01
    -19.570  0.1359E-01  0.3287E+01
    -19.556  0.1503E+01  0.3308E+01
    -19.542  0.7869E+01  0.3416E+01
    -19.528  0.2652E+01  0.3453E+01
    -19.515  0.4515E-01  0.3453E+01
    -19.501  0.2637E-04  0.3453E+01
    -19.487  0.4365E-09  0.3453E+01
    -19.473  0.5071E-12  0.3453E+01
    -19.460  0.1720E-06  0.3453E+01
    -19.446  0.1491E-02  0.3453E+01
    -19.432  0.3717E+00  0.3458E+01
    -19.418  0.3595E+01  0.3508E+01
    -19.405  0.2016E+01  0.3536E+01
    -19.391  0.5697E-01  0.3536E+01
    -19.377  0.5349E-04  0.3536E+01
    -19.363  0.1386E-08  0.3536E+01
    -19.350  0.2908E-05  0.3536E+01
    -19.336  0.7316E-02  0.3536E+01
    -19.322  0.5706E+00  0.3544E+01
    -19.308  0.2014E+01  0.3572E+01
    -19.295  0.4253E+00  0.3578E+01
    -19.281  0.4322E-02  0.3578E+01
    -19.267  0.2296E+00  0.3581E+01
    -19.254  0.4274E+01  0.3640E+01
    -19.240  0.5283E+01  0.3712E+01
    -19.226  0.4281E+01  0.3771E+01
    -19.212  0.1023E+01  0.3785E+01
    -19.199  0.1166E-01  0.3785E+01
    -19.185  0.1049E+00  0.3787E+01
    -19.171  0.2515E+01  0.3821E+01
    -19.157  0.3193E+01  0.3865E+01
    -19.144  0.2276E+00  0.3869E+01
    -19.130  0.5988E-03  0.3869E+01
    -19.116  0.4434E-07  0.3869E+01
    -19.102  0.5393E-06  0.3869E+01
    -19.089  0.3176E-02  0.3869E+01
    -19.075  0.5489E+00  0.3876E+01
    -19.061  0.3914E+01  0.3930E+01
    -19.047  0.3634E+01  0.3980E+01
    -19.034  0.3615E+01  0.4030E+01
    -19.020  0.3659E+00  0.4035E+01
    -19.006  0.1447E-02  0.4035E+01
    -18.992  0.1645E-06  0.4035E+01
    -18.979  0.4789E-12  0.4035E+01
    -18.965  0.1604E-08  0.4035E+01
    -18.951  0.5221E-04  0.4035E+01
    -18.937  0.4962E-01  0.4035E+01
    -18.924  0.1785E+01  0.4060E+01
    -18.910  0.3689E+01  0.4111E+01
    -18.896  0.5143E+00  0.4118E+01
    -18.882  0.3385E-02  0.4118E+01
    -18.869  0.7326E-06  0.4118E+01
    -18.855  0.4331E-11  0.4118E+01
    -18.841  0.5104E-09  0.4118E+01
    -18.827  0.2970E-04  0.4118E+01
    -18.814  0.4655E-01  0.4118E+01
    -18.800  0.2364E+01  0.4151E+01
    -18.786  0.5799E+01  0.4231E+01
    -18.772  0.8730E+00  0.4243E+01
    -18.759  0.1490E+01  0.4263E+01
    -18.745  0.4285E+01  0.4322E+01
    -18.731  0.4207E+01  0.4380E+01
    -18.717  0.2021E+01  0.4408E+01
    -18.704  0.5707E-01  0.4408E+01
    -18.690  0.2765E-01  0.4409E+01
    -18.676  0.1505E+01  0.4429E+01
    -18.662  0.3904E+01  0.4483E+01
    -18.649  0.6005E+00  0.4491E+01
    -18.635  0.3800E-02  0.4491E+01
    -18.621  0.7094E-06  0.4491E+01
    -18.607  0.3420E-11  0.4491E+01
    -18.594  0.5393E-09  0.4491E+01
    -18.580  0.2785E-04  0.4491E+01
    -18.566  0.3848E-01  0.4492E+01
    -18.552  0.1727E+01  0.4516E+01
    -18.539  0.3785E+01  0.4568E+01
    -18.525  0.5610E+00  0.4575E+01
    -18.511  0.2218E+01  0.4606E+01
    -18.497  0.3444E+01  0.4653E+01
    -18.484  0.3068E+00  0.4657E+01
    -18.470  0.1039E-02  0.4657E+01
    -18.456  0.1003E-06  0.4657E+01
    -18.442  0.2519E-12  0.4657E+01
    -18.429  0.5186E-08  0.4657E+01
    -18.415  0.1369E-03  0.4657E+01
    -18.401  0.9895E-01  0.4659E+01
    -18.387  0.2465E+01  0.4693E+01
    -18.374  0.3237E+01  0.4737E+01
    -18.360  0.2395E+00  0.4740E+01
    -18.346  0.1613E-02  0.4740E+01
    -18.333  0.2117E+00  0.4743E+01
    -18.319  0.1896E+01  0.4769E+01
    -18.305  0.2875E+01  0.4809E+01
    -18.291  0.3675E+01  0.4860E+01
    -18.278  0.4009E+00  0.4865E+01
    -18.264  0.3074E-01  0.4865E+01
    -18.250  0.1625E+01  0.4888E+01
    -18.236  0.5801E+01  0.4968E+01
    -18.223  0.1584E+01  0.4989E+01
    -18.209  0.2787E-01  0.4990E+01
    -18.195  0.6061E+00  0.4998E+01
    -18.181  0.3794E+01  0.5050E+01
    -18.168  0.1599E+01  0.5072E+01
    -18.154  0.2865E+00  0.5076E+01
    -18.140  0.3270E+01  0.5121E+01
    -18.126  0.2427E+01  0.5154E+01
    -18.113  0.9456E-01  0.5156E+01
    -18.099  0.1266E-03  0.5156E+01
    -18.085  0.4635E-08  0.5156E+01
    -18.071  0.4136E-14  0.5156E+01
    -18.058  0.1523E-09  0.5156E+01
    -18.044  0.5530E-05  0.5156E+01
    -18.030  0.5849E-02  0.5156E+01
    -18.016  0.3805E+00  0.5161E+01
    -18.003  0.3865E+01  0.5214E+01
    -17.989  0.4693E+01  0.5279E+01
    -17.975  0.6615E+00  0.5288E+01
    -17.961  0.1590E+01  0.5310E+01
    -17.948  0.5904E+01  0.5391E+01
    -17.934  0.4102E+01  0.5447E+01
    -17.920  0.4429E+00  0.5453E+01
    -17.906  0.2100E-01  0.5454E+01
    -17.893  0.1243E+01  0.5471E+01
    -17.879  0.4004E+01  0.5526E+01
    -17.865  0.8705E+00  0.5538E+01
    -17.851  0.1556E+01  0.5559E+01
    -17.838  0.2193E+01  0.5589E+01
    -17.824  0.5038E+01  0.5658E+01
    -17.810  0.5296E+01  0.5731E+01
    -17.796  0.2897E+01  0.5771E+01
    -17.783  0.4760E+01  0.5836E+01
    -17.769  0.7429E+01  0.5939E+01
    -17.755  0.9386E+00  0.5951E+01
    -17.741  0.1478E+00  0.5954E+01
    -17.728  0.1693E+01  0.5977E+01
    -17.714  0.1395E+01  0.5996E+01
    -17.700  0.3277E+01  0.6041E+01
    -17.686  0.3743E+01  0.6092E+01
    -17.673  0.5858E+01  0.6173E+01
    -17.659  0.2047E+01  0.6201E+01
    -17.645  0.2220E+01  0.6232E+01
    -17.631  0.4024E+01  0.6287E+01
    -17.618  0.4178E+01  0.6344E+01
    -17.604  0.1966E+01  0.6371E+01
    -17.590  0.3070E+01  0.6414E+01
    -17.576  0.3014E+01  0.6455E+01
    -17.563  0.2200E+01  0.6485E+01
    -17.549  0.7515E+00  0.6496E+01
    -17.535  0.2320E+01  0.6528E+01
    -17.521  0.4291E+01  0.6586E+01
    -17.508  0.2080E+01  0.6615E+01
    -17.494  0.1076E+00  0.6617E+01
    -17.480  0.1868E+01  0.6642E+01
    -17.466  0.3700E+01  0.6693E+01
    -17.453  0.9641E+00  0.6706E+01
    -17.439  0.3820E+01  0.6759E+01
    -17.425  0.1648E+01  0.6782E+01
    -17.412  0.1606E+00  0.6784E+01
    -17.398  0.2648E+01  0.6820E+01
    -17.384  0.5874E+01  0.6901E+01
    -17.370  0.4993E+01  0.6970E+01
    -17.357  0.2047E+01  0.6998E+01
    -17.343  0.3931E+01  0.7052E+01
    -17.329  0.1499E+01  0.7072E+01
    -17.315  0.1608E+00  0.7075E+01
    -17.302  0.2555E+01  0.7110E+01
    -17.288  0.7453E+01  0.7212E+01
    -17.274  0.7195E+01  0.7311E+01
    -17.260  0.3561E+01  0.7360E+01
    -17.247  0.3507E+00  0.7365E+01
    -17.233  0.2546E+01  0.7400E+01
    -17.219  0.4191E+01  0.7457E+01
    -17.205  0.2946E+01  0.7498E+01
    -17.192  0.4799E+01  0.7564E+01
    -17.178  0.3441E+01  0.7611E+01
    -17.164  0.2818E+01  0.7650E+01
    -17.150  0.6748E+01  0.7743E+01
    -17.137  0.5280E+01  0.7815E+01
    -17.123  0.2870E+01  0.7855E+01
    -17.109  0.3334E+01  0.7901E+01
    -17.095  0.2260E+01  0.7932E+01
    -17.082  0.4294E+01  0.7991E+01
    -17.068  0.2368E+01  0.8023E+01
    -17.054  0.4409E+00  0.8029E+01
    -17.040  0.3295E+01  0.8075E+01
    -17.027  0.6171E+01  0.8159E+01
    -17.013  0.9664E+01  0.8292E+01
    -16.999  0.7503E+01  0.8395E+01
    -16.985  0.4408E+00  0.8401E+01
    -16.972  0.1061E-02  0.8401E+01
    -16.958  0.1004E-01  0.8402E+01
    -16.944  0.9105E+00  0.8414E+01
    -16.930  0.4433E+01  0.8475E+01
    -16.917  0.6038E+01  0.8558E+01
    -16.903  0.3558E+01  0.8607E+01
    -16.889  0.1610E+00  0.8609E+01
    -16.875  0.3427E+00  0.8614E+01
    -16.862  0.1133E+01  0.8629E+01
    -16.848  0.3135E+01  0.8672E+01
    -16.834  0.3037E+01  0.8714E+01
    -16.820  0.4848E+01  0.8781E+01
    -16.807  0.6231E+01  0.8867E+01
    -16.793  0.8910E+00  0.8879E+01
    -16.779  0.4541E+00  0.8885E+01
    -16.765  0.3723E+01  0.8936E+01
    -16.752  0.2152E+01  0.8966E+01
    -16.738  0.3529E+01  0.9014E+01
    -16.724  0.2164E+01  0.9044E+01
    -16.710  0.7420E-01  0.9045E+01
    -16.697  0.8392E+00  0.9057E+01
    -16.683  0.5695E+01  0.9135E+01
    -16.669  0.2464E+01  0.9169E+01
    -16.655  0.8139E-01  0.9170E+01
    -16.642  0.1034E+01  0.9184E+01
    -16.628  0.4260E+01  0.9243E+01
    -16.614  0.3492E+01  0.9291E+01
    -16.600  0.5396E+00  0.9298E+01
    -16.587  0.3390E+01  0.9345E+01
    -16.573  0.2284E+01  0.9376E+01
    -16.559  0.7972E-01  0.9377E+01
    -16.545  0.9448E-04  0.9377E+01
    -16.532  0.3048E-08  0.9377E+01
    -16.518  0.9979E-08  0.9377E+01
    -16.504  0.1736E-03  0.9377E+01
    -16.490  0.8411E-01  0.9378E+01
    -16.477  0.1464E+01  0.9398E+01
    -16.463  0.1400E+01  0.9418E+01
    -16.449  0.7268E-01  0.9419E+01
    -16.436  0.1340E-03  0.9419E+01
    -16.422  0.6843E-08  0.9419E+01
    -16.408  0.8887E-14  0.9419E+01
    -16.394  0.3068E-09  0.9419E+01
    -16.381  0.1526E-04  0.9419E+01
    -16.367  0.2035E-01  0.9419E+01
    -16.353  0.8983E+00  0.9431E+01
    -16.339  0.2665E+01  0.9468E+01
    -16.326  0.2721E+01  0.9505E+01
    -16.312  0.4141E+01  0.9562E+01
    -16.298  0.1604E+01  0.9584E+01
    -16.284  0.4705E-01  0.9585E+01
    -16.271  0.7798E+00  0.9596E+01
    -16.257  0.2091E+01  0.9624E+01
    -16.243  0.4641E+01  0.9688E+01
    -16.229  0.1076E+02  0.9836E+01
    -16.216  0.5371E+01  0.9910E+01
    -16.202  0.5240E+00  0.9917E+01
    -16.188  0.1407E+01  0.9937E+01
    -16.174  0.5922E+01  0.1002E+02
    -16.161  0.2018E+01  0.1005E+02
    -16.147  0.4604E+01  0.1011E+02
    -16.133  0.4330E+01  0.1017E+02
    -16.119  0.3814E+01  0.1022E+02
    -16.106  0.1999E+01  0.1025E+02
    -16.092  0.6749E-01  0.1025E+02
    -16.078  0.1035E+01  0.1026E+02
    -16.064  0.4040E+01  0.1032E+02
    -16.051  0.9453E+00  0.1033E+02
    -16.037  0.9707E-02  0.1033E+02
    -16.023  0.3050E-05  0.1033E+02
    -16.009  0.2297E-03  0.1033E+02
    -15.996  0.1332E+00  0.1033E+02
    -15.982  0.2722E+01  0.1037E+02
    -15.968  0.3006E+01  0.1041E+02
    -15.954  0.7919E+00  0.1042E+02
    -15.941  0.3891E+01  0.1048E+02
    -15.927  0.1515E+01  0.1050E+02
    -15.913  0.7613E+00  0.1051E+02
    -15.899  0.3988E+01  0.1056E+02
    -15.886  0.1438E+01  0.1058E+02
    -15.872  0.1712E+01  0.1061E+02
    -15.858  0.1145E+01  0.1062E+02
    -15.844  0.4016E-01  0.1062E+02
    -15.831  0.1419E-01  0.1062E+02
    -15.817  0.1124E+01  0.1064E+02
    -15.803  0.4084E+01  0.1069E+02
    -15.789  0.2834E+01  0.1073E+02
    -15.776  0.3637E+01  0.1078E+02
    -15.762  0.3889E+00  0.1079E+02
    -15.748  0.1003E+00  0.1079E+02
    -15.734  0.2463E+01  0.1082E+02
    -15.721  0.3239E+01  0.1087E+02
    -15.707  0.2996E+00  0.1087E+02
    -15.693  0.2050E+01  0.1090E+02
    -15.679  0.3571E+01  0.1095E+02
    -15.666  0.3603E+00  0.1096E+02
    -15.652  0.1356E+00  0.1096E+02
    -15.638  0.1671E+01  0.1098E+02
    -15.624  0.1803E+01  0.1100E+02
    -15.611  0.3968E+01  0.1106E+02
    -15.597  0.1461E+01  0.1108E+02
    -15.583  0.2569E-01  0.1108E+02
    -15.569  0.1437E-04  0.1108E+02
    -15.556  0.3285E-07  0.1108E+02
    -15.542  0.2949E-03  0.1108E+02
    -15.528  0.7932E-01  0.1108E+02
    -15.515  0.8563E+00  0.1109E+02
    -15.501  0.5702E+00  0.1110E+02
    -15.487  0.1191E+01  0.1112E+02
    -15.473  0.4280E+01  0.1118E+02
    -15.460  0.2738E+01  0.1121E+02
    -15.446  0.8576E+00  0.1122E+02
    -15.432  0.8801E+00  0.1124E+02
    -15.418  0.3493E+01  0.1129E+02
    -15.405  0.4118E+01  0.1134E+02
    -15.391  0.5676E+00  0.1135E+02
    -15.377  0.4050E-01  0.1135E+02
    -15.363  0.1701E+01  0.1137E+02
    -15.350  0.3801E+01  0.1143E+02
    -15.336  0.5021E+00  0.1143E+02
    -15.322  0.5703E+00  0.1144E+02
    -15.308  0.6647E+01  0.1153E+02
    -15.295  0.4840E+01  0.1160E+02
    -15.281  0.2031E+01  0.1163E+02
    -15.267  0.2744E+01  0.1166E+02
    -15.253  0.1245E+01  0.1168E+02
    -15.240  0.4682E-01  0.1168E+02
    -15.226  0.1574E-02  0.1168E+02
    -15.212  0.2677E+00  0.1169E+02
    -15.198  0.1921E+01  0.1171E+02
    -15.185  0.8139E+00  0.1172E+02
    -15.171  0.3043E-01  0.1172E+02
    -15.157  0.1106E+01  0.1174E+02
    -15.143  0.4028E+01  0.1179E+02
    -15.130  0.1010E+01  0.1181E+02
    -15.116  0.3995E+01  0.1186E+02
    -15.102  0.7146E+01  0.1196E+02
    -15.088  0.8578E+00  0.1197E+02
    -15.075  0.1122E+01  0.1199E+02
    -15.061  0.1715E+01  0.1201E+02
    -15.047  0.1506E+00  0.1201E+02
    -15.033  0.3908E-02  0.1201E+02
    -15.020  0.5842E+00  0.1202E+02
    -15.006  0.5071E+01  0.1209E+02
    -14.992  0.5581E+01  0.1217E+02
    -14.978  0.8368E+00  0.1218E+02
    -14.965  0.6961E-02  0.1218E+02
    -14.951  0.1799E-05  0.1218E+02
    -14.937  0.5388E-08  0.1218E+02
    -14.923  0.1495E-03  0.1218E+02
    -14.910  0.1186E+00  0.1218E+02
    -14.896  0.3358E+01  0.1223E+02
    -14.882  0.5119E+01  0.1230E+02
    -14.868  0.5333E+00  0.1231E+02
    -14.855  0.2165E+01  0.1234E+02
    -14.841  0.3486E+01  0.1238E+02
    -14.827  0.4149E+00  0.1239E+02
    -14.813  0.1576E+01  0.1241E+02
    -14.800  0.3846E+01  0.1246E+02
    -14.786  0.5715E+01  0.1254E+02
    -14.772  0.2851E+01  0.1258E+02
    -14.758  0.3737E+01  0.1263E+02
    -14.745  0.1910E+01  0.1266E+02
    -14.731  0.2874E+01  0.1270E+02
    -14.717  0.3977E+01  0.1275E+02
    -14.703  0.6055E+00  0.1276E+02
    -14.690  0.3903E-02  0.1276E+02
    -14.676  0.3722E-01  0.1276E+02
    -14.662  0.1162E+01  0.1278E+02
    -14.648  0.3607E+01  0.1283E+02
    -14.635  0.3834E+01  0.1288E+02
    -14.621  0.4878E+00  0.1289E+02
    -14.607  0.2163E+01  0.1292E+02
    -14.594  0.3492E+01  0.1296E+02
    -14.580  0.8045E+00  0.1298E+02
    -14.566  0.2022E+01  0.1300E+02
    -14.552  0.5088E+00  0.1301E+02
    -14.539  0.1545E+00  0.1301E+02
    -14.525  0.4201E+01  0.1307E+02
    -14.511  0.6968E+01  0.1317E+02
    -14.497  0.8283E+00  0.1318E+02
    -14.484  0.1599E+01  0.1320E+02
    -14.470  0.4713E+01  0.1326E+02
    -14.456  0.2583E+01  0.1330E+02
    -14.442  0.1023E+00  0.1330E+02
    -14.429  0.1445E-03  0.1330E+02
    -14.415  0.1220E-04  0.1330E+02
    -14.401  0.2314E-01  0.1330E+02
    -14.387  0.1397E+01  0.1332E+02
    -14.374  0.4425E+01  0.1338E+02
    -14.360  0.4435E+01  0.1344E+02
    -14.346  0.1813E+01  0.1347E+02
    -14.332  0.1974E+01  0.1349E+02
    -14.319  0.3697E+01  0.1355E+02
    -14.305  0.1592E+01  0.1357E+02
    -14.291  0.1656E+01  0.1359E+02
    -14.277  0.1933E+00  0.1359E+02
    -14.264  0.1337E+01  0.1361E+02
    -14.250  0.1524E+01  0.1363E+02
    -14.236  0.9683E-01  0.1363E+02
    -14.222  0.2326E+00  0.1364E+02
    -14.209  0.5718E+01  0.1372E+02
    -14.195  0.1060E+02  0.1386E+02
    -14.181  0.1960E+01  0.1389E+02
    -14.167  0.3671E+01  0.1394E+02
    -14.154  0.2705E+01  0.1398E+02
    -14.140  0.4055E+01  0.1403E+02
    -14.126  0.1371E+01  0.1405E+02
    -14.112  0.2719E+01  0.1409E+02
    -14.099  0.3022E+01  0.1413E+02
    -14.085  0.1887E+00  0.1413E+02
    -14.071  0.4434E+00  0.1414E+02
    -14.057  0.5028E+01  0.1421E+02
    -14.044  0.4100E+01  0.1426E+02
    -14.030  0.4414E+01  0.1432E+02
    -14.016  0.3432E+01  0.1437E+02
    -14.002  0.6940E+00  0.1438E+02
    -13.989  0.2249E-01  0.1438E+02
    -13.975  0.1266E+01  0.1440E+02
    -13.961  0.7343E+01  0.1450E+02
    -13.947  0.4890E+01  0.1457E+02
    -13.934  0.6125E+01  0.1465E+02
    -13.920  0.1490E+01  0.1467E+02
    -13.906  0.1704E-01  0.1467E+02
    -13.892  0.6230E-05  0.1467E+02
    -13.879  0.2288E-04  0.1467E+02
    -13.865  0.4705E-01  0.1467E+02
    -13.851  0.3145E+01  0.1472E+02
    -13.837  0.9966E+01  0.1485E+02
    -13.824  0.2071E+01  0.1488E+02
    -13.810  0.3252E+01  0.1493E+02
    -13.796  0.6691E+01  0.1502E+02
    -13.782  0.1968E+01  0.1504E+02
    -13.769  0.4540E-01  0.1504E+02
    -13.755  0.1144E+00  0.1505E+02
    -13.741  0.3995E+01  0.1510E+02
    -13.727  0.7200E+01  0.1520E+02
    -13.714  0.7757E+00  0.1521E+02
    -13.700  0.8977E+00  0.1522E+02
    -13.686  0.5866E+01  0.1530E+02
    -13.673  0.5153E+01  0.1537E+02
    -13.659  0.3072E+01  0.1542E+02
    -13.645  0.2358E+01  0.1545E+02
    -13.631  0.9439E+01  0.1558E+02
    -13.618  0.6100E+01  0.1566E+02
    -13.604  0.4760E+00  0.1567E+02
    -13.590  0.2750E+01  0.1571E+02
    -13.576  0.2977E+01  0.1575E+02
    -13.563  0.1892E+00  0.1575E+02
    -13.549  0.6982E+00  0.1576E+02
    -13.535  0.2653E+01  0.1580E+02
    -13.521  0.5962E+01  0.1588E+02
    -13.508  0.6890E+01  0.1597E+02
    -13.494  0.5218E+01  0.1605E+02
    -13.480  0.2669E+01  0.1608E+02
    -13.466  0.1944E+01  0.1611E+02
    -13.453  0.3919E+01  0.1616E+02
    -13.439  0.6918E+01  0.1626E+02
    -13.425  0.2440E+01  0.1629E+02
    -13.411  0.1657E+01  0.1631E+02
    -13.398  0.1261E+01  0.1633E+02
    -13.384  0.5970E+00  0.1634E+02
    -13.370  0.7307E+01  0.1644E+02
    -13.356  0.7152E+01  0.1654E+02
    -13.343  0.4492E+01  0.1660E+02
    -13.329  0.4119E+01  0.1666E+02
    -13.315  0.5431E+00  0.1666E+02
    -13.301  0.5239E-02  0.1666E+02
    -13.288  0.3555E-01  0.1666E+02
    -13.274  0.3145E+00  0.1667E+02
    -13.260  0.9193E+00  0.1668E+02
    -13.246  0.5287E+01  0.1675E+02
    -13.233  0.3148E+01  0.1680E+02
    -13.219  0.4207E+01  0.1686E+02
    -13.205  0.4401E+01  0.1692E+02
    -13.191  0.3771E+00  0.1692E+02
    -13.178  0.1501E+01  0.1694E+02
    -13.164  0.3255E+01  0.1699E+02
    -13.150  0.1186E+01  0.1700E+02
    -13.136  0.8782E-01  0.1700E+02
    -13.123  0.1259E+01  0.1702E+02
    -13.109  0.1726E+01  0.1705E+02
    -13.095  0.8299E+00  0.1706E+02
    -13.081  0.2224E+01  0.1709E+02
    -13.068  0.5336E+01  0.1716E+02
    -13.054  0.1618E+01  0.1718E+02
    -13.040  0.4562E+00  0.1719E+02
    -13.026  0.3666E+01  0.1724E+02
    -13.013  0.1915E+01  0.1727E+02
    -12.999  0.4988E-01  0.1727E+02
    -12.985  0.4283E-04  0.1727E+02
    -12.971  0.9907E-09  0.1727E+02
    -12.958  0.3027E-06  0.1727E+02
    -12.944  0.2171E-02  0.1727E+02
    -12.930  0.4520E+00  0.1727E+02
    -12.916  0.3735E+01  0.1732E+02
    -12.903  0.1809E+01  0.1735E+02
    -12.889  0.4315E-01  0.1735E+02
    -12.875  0.3365E-04  0.1735E+02
    -12.861  0.7041E-09  0.1735E+02
    -12.848  0.2905E-11  0.1735E+02
    -12.834  0.6287E-06  0.1735E+02
    -12.820  0.3512E-02  0.1735E+02
    -12.806  0.5816E+00  0.1736E+02
    -12.793  0.4525E+01  0.1742E+02
    -12.779  0.5530E+01  0.1750E+02
    -12.765  0.2675E+01  0.1753E+02
    -12.751  0.1661E+01  0.1756E+02
    -12.738  0.1250E+00  0.1756E+02
    -12.724  0.3556E-03  0.1756E+02
    -12.710  0.2858E-07  0.1756E+02
    -12.697  0.8099E-06  0.1756E+02
    -12.683  0.4142E-02  0.1756E+02
    -12.669  0.6269E+00  0.1757E+02
    -12.655  0.3925E+01  0.1762E+02
    -12.642  0.1460E+01  0.1764E+02
    -12.628  0.2566E-01  0.1764E+02
    -12.614  0.2240E-02  0.1764E+02
    -12.600  0.4397E+00  0.1765E+02
    -12.587  0.3668E+01  0.1770E+02
    -12.573  0.1880E+01  0.1772E+02
    -12.559  0.5076E-01  0.1772E+02
    -12.545  0.4830E-04  0.1772E+02
    -12.532  0.1309E-08  0.1772E+02
    -12.518  0.3580E-06  0.1772E+02
    -12.504  0.2052E-02  0.1772E+02
    -12.490  0.4094E+00  0.1773E+02
    -12.477  0.4508E+01  0.1779E+02
    -12.463  0.3910E+01  0.1784E+02
    -12.449  0.2531E+00  0.1785E+02
    -12.435  0.1279E+01  0.1787E+02
    -12.422  0.5566E+01  0.1794E+02
    -12.408  0.2334E+01  0.1797E+02
    -12.394  0.1851E+01  0.1800E+02
    -12.380  0.1003E+01  0.1801E+02
    -12.367  0.2812E-01  0.1801E+02
    -12.353  0.2618E-04  0.1801E+02
    -12.339  0.6576E-09  0.1801E+02
    -12.325  0.3457E-08  0.1801E+02
    -12.312  0.8361E-04  0.1801E+02
    -12.298  0.5580E-01  0.1801E+02
    -12.284  0.1395E+01  0.1803E+02
    -12.270  0.3620E+01  0.1808E+02
    -12.257  0.3411E+01  0.1813E+02
    -12.243  0.8176E+00  0.1814E+02
    -12.229  0.3257E+01  0.1819E+02
    -12.215  0.2908E+01  0.1823E+02
    -12.202  0.4436E+01  0.1829E+02
    -12.188  0.3978E+01  0.1834E+02
    -12.174  0.3589E+01  0.1839E+02
    -12.160  0.4931E+01  0.1846E+02
    -12.147  0.3514E+01  0.1851E+02
    -12.133  0.4617E+01  0.1857E+02
    -12.119  0.1993E+01  0.1860E+02
    -12.105  0.2045E+01  0.1863E+02
    -12.092  0.7598E+00  0.1864E+02
    -12.078  0.1608E+01  0.1866E+02
    -12.064  0.4822E+01  0.1873E+02
    -12.050  0.5456E+01  0.1880E+02
    -12.037  0.6173E+01  0.1889E+02
    -12.023  0.2718E+01  0.1892E+02
    -12.009  0.2526E+01  0.1896E+02
    -11.995  0.3527E+01  0.1901E+02
    -11.982  0.8387E+00  0.1902E+02
    -11.968  0.5378E+01  0.1909E+02
    -11.954  0.6052E+01  0.1917E+02
    -11.940  0.3016E+01  0.1922E+02
    -11.927  0.1022E+01  0.1923E+02
    -11.913  0.4417E+01  0.1929E+02
    -11.899  0.5610E+01  0.1937E+02
    -11.885  0.3972E+01  0.1942E+02
    -11.872  0.2372E+00  0.1943E+02
    -11.858  0.1663E+00  0.1943E+02
    -11.844  0.2915E+01  0.1947E+02
    -11.830  0.2813E+01  0.1951E+02
    -11.817  0.3616E+00  0.1951E+02
    -11.803  0.4335E+01  0.1957E+02
    -11.789  0.1003E+02  0.1971E+02
    -11.776  0.3452E+01  0.1976E+02
    -11.762  0.9456E-01  0.1976E+02
    -11.748  0.2643E-02  0.1976E+02
    -11.734  0.6798E+00  0.1977E+02
    -11.721  0.7138E+01  0.1987E+02
    -11.707  0.7907E+01  0.1997E+02
    -11.693  0.7529E+01  0.2008E+02
    -11.679  0.1282E+01  0.2010E+02
    -11.666  0.3638E+01  0.2015E+02
    -11.652  0.3519E+01  0.2019E+02
    -11.638  0.3954E+01  0.2025E+02
    -11.624  0.5943E+00  0.2026E+02
    -11.611  0.3832E-02  0.2026E+02
    -11.597  0.8801E-01  0.2026E+02
    -11.583  0.2366E+01  0.2029E+02
    -11.569  0.3321E+01  0.2034E+02
    -11.556  0.2645E+00  0.2034E+02
    -11.542  0.7892E-03  0.2034E+02
    -11.528  0.6666E-07  0.2034E+02
    -11.514  0.1435E-12  0.2034E+02
    -11.501  0.0000E+00  0.2034E+02
    -11.487  0.1496E-11  0.2034E+02
    -11.473  0.3471E-06  0.2034E+02
    -11.459  0.2178E-02  0.2034E+02
    -11.446  0.4285E+00  0.2035E+02
    -11.432  0.3669E+01  0.2040E+02
    -11.418  0.4087E+01  0.2045E+02
    -11.404  0.5938E+01  0.2053E+02
    -11.391  0.1610E+01  0.2056E+02
    -11.377  0.6949E+01  0.2065E+02
    -11.363  0.6503E+01  0.2074E+02
    -11.349  0.3680E+01  0.2079E+02
    -11.336  0.3587E+00  0.2080E+02
    -11.322  0.3858E-01  0.2080E+02
    -11.308  0.2324E+01  0.2083E+02
    -11.294  0.1040E+02  0.2097E+02
    -11.281  0.7213E+01  0.2107E+02
    -11.267  0.4285E+01  0.2113E+02
    -11.253  0.2968E+01  0.2117E+02
    -11.239  0.2706E+01  0.2121E+02
    -11.226  0.2994E+01  0.2125E+02
    -11.212  0.2995E+00  0.2125E+02
    -11.198  0.1525E-02  0.2125E+02
    -11.184  0.2457E-06  0.2125E+02
    -11.171  0.1035E-11  0.2125E+02
    -11.157  0.0000E+00  0.2125E+02
    -11.143  0.0000E+00  0.2125E+02
    -11.129  0.2683E-14  0.2125E+02
    -11.116  0.3225E-08  0.2125E+02
    -11.102  0.9830E-04  0.2125E+02
    -11.088  0.8159E-01  0.2125E+02
    -11.074  0.2303E+01  0.2129E+02
    -11.061  0.3374E+01  0.2133E+02
    -11.047  0.2816E+00  0.2134E+02
    -11.033  0.1290E-01  0.2134E+02
    -11.019  0.1045E+01  0.2135E+02
    -11.006  0.4313E+01  0.2141E+02
    -10.992  0.3373E+01  0.2146E+02
    -10.978  0.6967E+01  0.2155E+02
    -10.964  0.5150E+01  0.2162E+02
    -10.951  0.2844E+00  0.2163E+02
    -10.937  0.6786E-03  0.2163E+02
    -10.923  0.7461E-02  0.2163E+02
    -10.909  0.5756E+00  0.2163E+02
    -10.896  0.2051E+01  0.2166E+02
    -10.882  0.2284E+01  0.2169E+02
    -10.868  0.7287E+01  0.2179E+02
    -10.855  0.9523E+01  0.2192E+02
    -10.841  0.5198E+01  0.2200E+02
    -10.827  0.3722E+01  0.2205E+02
    -10.813  0.8055E+01  0.2216E+02
    -10.800  0.6181E+01  0.2224E+02
    -10.786  0.1165E+02  0.2240E+02
    -10.772  0.6674E+01  0.2250E+02
    -10.758  0.2724E+01  0.2253E+02
    -10.745  0.5461E+00  0.2254E+02
    -10.731  0.1291E+01  0.2256E+02
    -10.717  0.4570E+01  0.2262E+02
    -10.703  0.1155E+01  0.2264E+02
    -10.690  0.3022E+00  0.2264E+02
    -10.676  0.4128E+01  0.2270E+02
    -10.662  0.4334E+01  0.2276E+02
    -10.648  0.3100E+00  0.2276E+02
    -10.635  0.1146E-01  0.2276E+02
    -10.621  0.6716E+00  0.2277E+02
    -10.607  0.2225E+01  0.2280E+02
    -10.593  0.3018E+01  0.2284E+02
    -10.580  0.8405E+01  0.2296E+02
    -10.566  0.1127E+02  0.2311E+02
    -10.552  0.8213E+01  0.2323E+02
    -10.538  0.8163E+01  0.2334E+02
    -10.525  0.3096E+01  0.2338E+02
    -10.511  0.2476E+00  0.2338E+02
    -10.497  0.1276E+01  0.2340E+02
    -10.483  0.5871E+01  0.2348E+02
    -10.470  0.1873E+01  0.2351E+02
    -10.456  0.4420E+00  0.2351E+02
    -10.442  0.2010E+01  0.2354E+02
    -10.428  0.5885E+00  0.2355E+02
    -10.415  0.7843E-02  0.2355E+02
    -10.401  0.1513E-01  0.2355E+02
    -10.387  0.1434E+01  0.2357E+02
    -10.373  0.6051E+01  0.2365E+02
    -10.360  0.1544E+01  0.2367E+02
    -10.346  0.1773E-01  0.2367E+02
    -10.332  0.1467E-01  0.2367E+02
    -10.318  0.7724E+00  0.2369E+02
    -10.305  0.2002E+01  0.2371E+02
    -10.291  0.1795E+01  0.2374E+02
    -10.277  0.3589E+01  0.2379E+02
    -10.263  0.4851E+01  0.2385E+02
    -10.250  0.6553E+01  0.2394E+02
    -10.236  0.2177E+01  0.2397E+02
    -10.222  0.5063E+01  0.2404E+02
    -10.208  0.7207E+01  0.2414E+02
    -10.195  0.5910E+01  0.2422E+02
    -10.181  0.1215E+02  0.2439E+02
    -10.167  0.1677E+02  0.2462E+02
    -10.153  0.3581E+01  0.2467E+02
    -10.140  0.1984E+00  0.2467E+02
    -10.126  0.2917E+01  0.2471E+02
    -10.112  0.7092E+01  0.2481E+02
    -10.098  0.3429E+01  0.2486E+02
    -10.085  0.1446E+01  0.2488E+02
    -10.071  0.1773E+00  0.2488E+02
    -10.057  0.2498E+01  0.2491E+02
    -10.043  0.3723E+01  0.2497E+02
    -10.030  0.2254E+01  0.2500E+02
    -10.016  0.4794E+00  0.2500E+02
    -10.002  0.4989E-02  0.2500E+02
     -9.988  0.1586E-05  0.2500E+02
     -9.975  0.2377E-09  0.2500E+02
     -9.961  0.1490E-04  0.2500E+02
     -9.947  0.2627E-01  0.2500E+02
     -9.934  0.1474E+01  0.2502E+02
     -9.920  0.3918E+01  0.2508E+02
     -9.906  0.6329E+00  0.2509E+02
     -9.892  0.1017E+01  0.2510E+02
     -9.879  0.5852E+01  0.2518E+02
     -9.865  0.6594E+01  0.2527E+02
     -9.851  0.2164E+01  0.2530E+02
     -9.837  0.4026E+01  0.2536E+02
     -9.824  0.4619E+01  0.2542E+02
     -9.810  0.8847E+01  0.2554E+02
     -9.796  0.9686E+01  0.2568E+02
     -9.782  0.7219E+01  0.2577E+02
     -9.769  0.1696E+01  0.2580E+02
     -9.755  0.4856E+01  0.2586E+02
     -9.741  0.4314E+01  0.2592E+02
     -9.727  0.5350E+01  0.2600E+02
     -9.714  0.3088E+01  0.2604E+02
     -9.700  0.2165E+00  0.2604E+02
     -9.686  0.2329E+01  0.2607E+02
     -9.672  0.4378E+01  0.2613E+02
     -9.659  0.2084E+01  0.2616E+02
     -9.645  0.1941E+00  0.2617E+02
     -9.631  0.7032E+00  0.2618E+02
     -9.617  0.3973E+01  0.2623E+02
     -9.604  0.1435E+01  0.2625E+02
     -9.590  0.2518E+01  0.2628E+02
     -9.576  0.5416E+01  0.2636E+02
     -9.562  0.3740E+01  0.2641E+02
     -9.549  0.3332E+00  0.2642E+02
     -9.535  0.4751E-01  0.2642E+02
     -9.521  0.2303E+01  0.2645E+02
     -9.507  0.6990E+01  0.2654E+02
     -9.494  0.8846E+01  0.2667E+02
     -9.480  0.5547E+01  0.2674E+02
     -9.466  0.6878E+00  0.2675E+02
     -9.452  0.4218E+01  0.2681E+02
     -9.439  0.8341E+01  0.2692E+02
     -9.425  0.2776E+01  0.2696E+02
     -9.411  0.2087E+01  0.2699E+02
     -9.397  0.3426E+01  0.2704E+02
     -9.384  0.8684E+00  0.2705E+02
     -9.370  0.3494E+01  0.2710E+02
     -9.356  0.2692E+01  0.2713E+02
     -9.342  0.4323E+01  0.2719E+02
     -9.329  0.4126E+01  0.2725E+02
     -9.315  0.3935E+01  0.2730E+02
     -9.301  0.6216E+01  0.2739E+02
     -9.287  0.2013E+01  0.2742E+02
     -9.274  0.2561E+00  0.2742E+02
     -9.260  0.2448E+01  0.2745E+02
     -9.246  0.5570E+01  0.2753E+02
     -9.232  0.6521E+01  0.2762E+02
     -9.219  0.3591E+01  0.2767E+02
     -9.205  0.3936E+01  0.2772E+02
     -9.191  0.7870E+01  0.2783E+02
     -9.177  0.1264E+02  0.2801E+02
     -9.164  0.2507E+01  0.2804E+02
     -9.150  0.4931E+00  0.2805E+02
     -9.136  0.5003E+01  0.2812E+02
     -9.122  0.3455E+01  0.2816E+02
     -9.109  0.4676E+00  0.2817E+02
     -9.095  0.1979E+01  0.2820E+02
     -9.081  0.1948E+01  0.2822E+02
     -9.067  0.7829E+01  0.2833E+02
     -9.054  0.2966E+01  0.2837E+02
     -9.040  0.1706E+00  0.2838E+02
     -9.026  0.2630E+01  0.2841E+02
     -9.012  0.4530E+01  0.2847E+02
     -8.999  0.4582E+01  0.2854E+02
     -8.985  0.2684E+01  0.2857E+02
     -8.971  0.1922E+01  0.2860E+02
     -8.958  0.6353E+01  0.2869E+02
     -8.944  0.5787E+01  0.2877E+02
     -8.930  0.8906E+01  0.2889E+02
     -8.916  0.1064E+02  0.2904E+02
     -8.903  0.1184E+02  0.2920E+02
     -8.889  0.3421E+01  0.2925E+02
     -8.875  0.2202E+01  0.2928E+02
     -8.861  0.6698E+01  0.2937E+02
     -8.848  0.5451E+01  0.2944E+02
     -8.834  0.7621E+00  0.2945E+02
     -8.820  0.5857E-02  0.2945E+02
     -8.806  0.5339E-01  0.2945E+02
     -8.793  0.2108E+01  0.2948E+02
     -8.779  0.6435E+01  0.2957E+02
     -8.765  0.3354E+01  0.2962E+02
     -8.751  0.2218E+01  0.2965E+02
     -8.738  0.6221E+01  0.2973E+02
     -8.724  0.4495E+01  0.2980E+02
     -8.710  0.8004E+01  0.2991E+02
     -8.696  0.5004E+01  0.2997E+02
     -8.683  0.5973E+01  0.3006E+02
     -8.669  0.5276E+01  0.3013E+02
     -8.655  0.1096E+02  0.3028E+02
     -8.641  0.5502E+01  0.3036E+02
     -8.628  0.8329E+00  0.3037E+02
     -8.614  0.1078E+00  0.3037E+02
     -8.600  0.2608E+01  0.3040E+02
     -8.586  0.6303E+01  0.3049E+02
     -8.573  0.4857E+01  0.3056E+02
     -8.559  0.3909E+01  0.3061E+02
     -8.545  0.2039E+01  0.3064E+02
     -8.531  0.4219E+01  0.3070E+02
     -8.518  0.6685E+01  0.3079E+02
     -8.504  0.5556E+01  0.3087E+02
     -8.490  0.2642E+01  0.3090E+02
     -8.476  0.1043E+01  0.3092E+02
     -8.463  0.3167E+01  0.3096E+02
     -8.449  0.8547E+01  0.3108E+02
     -8.435  0.7085E+01  0.3117E+02
     -8.421  0.8583E+01  0.3129E+02
     -8.408  0.7605E+01  0.3140E+02
     -8.394  0.1407E+01  0.3142E+02
     -8.380  0.5036E+01  0.3149E+02
     -8.366  0.1114E+02  0.3164E+02
     -8.353  0.8728E+01  0.3176E+02
     -8.339  0.4584E+01  0.3182E+02
     -8.325  0.3848E+00  0.3183E+02
     -8.311  0.1526E-02  0.3183E+02
     -8.298  0.1013E-03  0.3183E+02
     -8.284  0.8846E-01  0.3183E+02
     -8.270  0.3081E+01  0.3187E+02
     -8.256  0.7891E+01  0.3198E+02
     -8.243  0.5228E+01  0.3205E+02
     -8.229  0.4340E+01  0.3211E+02
     -8.215  0.9453E+00  0.3212E+02
     -8.201  0.3139E+01  0.3217E+02
     -8.188  0.4691E+01  0.3223E+02
     -8.174  0.2700E+01  0.3227E+02
     -8.160  0.2856E+01  0.3231E+02
     -8.146  0.6066E+01  0.3239E+02
     -8.133  0.1287E+02  0.3257E+02
     -8.119  0.1272E+02  0.3274E+02
     -8.105  0.1581E+02  0.3296E+02
     -8.091  0.6694E+01  0.3305E+02
     -8.078  0.2461E+01  0.3309E+02
     -8.064  0.5974E+00  0.3309E+02
     -8.050  0.2055E+01  0.3312E+02
     -8.037  0.6384E+01  0.3321E+02
     -8.023  0.3414E+01  0.3326E+02
     -8.009  0.1856E+00  0.3326E+02
     -7.995  0.1273E+00  0.3326E+02
     -7.982  0.3702E+01  0.3331E+02
     -7.968  0.8779E+01  0.3343E+02
     -7.954  0.4836E+01  0.3350E+02
     -7.940  0.3438E+01  0.3355E+02
     -7.927  0.1611E+01  0.3357E+02
     -7.913  0.6313E+01  0.3366E+02
     -7.899  0.4193E+01  0.3371E+02
     -7.885  0.3340E+01  0.3376E+02
     -7.872  0.9728E+01  0.3389E+02
     -7.858  0.5693E+01  0.3397E+02
     -7.844  0.2372E+01  0.3400E+02
     -7.830  0.1443E+01  0.3402E+02
     -7.817  0.3101E+01  0.3407E+02
     -7.803  0.4548E+01  0.3413E+02
     -7.789  0.4622E+01  0.3419E+02
     -7.775  0.4983E+01  0.3426E+02
     -7.762  0.3411E+01  0.3431E+02
     -7.748  0.3816E+01  0.3436E+02
     -7.734  0.1868E+01  0.3439E+02
     -7.720  0.6811E+01  0.3448E+02
     -7.707  0.1007E+02  0.3462E+02
     -7.693  0.9268E+01  0.3475E+02
     -7.679  0.6337E+01  0.3483E+02
     -7.665  0.1180E+01  0.3485E+02
     -7.652  0.4185E+01  0.3491E+02
     -7.638  0.3003E+01  0.3495E+02
     -7.624  0.3006E+01  0.3499E+02
     -7.610  0.8379E+01  0.3510E+02
     -7.597  0.7487E+01  0.3521E+02
     -7.583  0.5250E+01  0.3528E+02
     -7.569  0.1676E+01  0.3530E+02
     -7.555  0.1559E+01  0.3532E+02
     -7.542  0.2454E+01  0.3536E+02
     -7.528  0.5058E+01  0.3543E+02
     -7.514  0.2966E+01  0.3547E+02
     -7.500  0.3478E+01  0.3552E+02
     -7.487  0.6207E+01  0.3560E+02
     -7.473  0.3629E+01  0.3565E+02
     -7.459  0.2972E+01  0.3569E+02
     -7.445  0.4137E+01  0.3575E+02
     -7.432  0.3851E+01  0.3580E+02
     -7.418  0.1397E+02  0.3599E+02
     -7.404  0.1028E+02  0.3613E+02
     -7.390  0.1844E+02  0.3639E+02
     -7.377  0.1187E+02  0.3655E+02
     -7.363  0.7232E+01  0.3665E+02
     -7.349  0.9197E+01  0.3678E+02
     -7.335  0.5470E+01  0.3685E+02
     -7.322  0.6864E+01  0.3695E+02
     -7.308  0.6305E+01  0.3703E+02
     -7.294  0.9998E+00  0.3705E+02
     -7.280  0.2861E+01  0.3709E+02
     -7.267  0.5605E+01  0.3716E+02
     -7.253  0.8442E+01  0.3728E+02
     -7.239  0.4145E+01  0.3734E+02
     -7.225  0.4339E+01  0.3740E+02
     -7.212  0.4532E+01  0.3746E+02
     -7.198  0.3153E+01  0.3750E+02
     -7.184  0.3194E+01  0.3755E+02
     -7.170  0.3708E+01  0.3760E+02
     -7.157  0.3674E+01  0.3765E+02
     -7.143  0.3137E+01  0.3769E+02
     -7.129  0.5033E+01  0.3776E+02
     -7.116  0.2336E+01  0.3779E+02
     -7.102  0.1232E+00  0.3779E+02
     -7.088  0.1880E+01  0.3782E+02
     -7.074  0.3903E+01  0.3787E+02
     -7.061  0.4512E+01  0.3793E+02
     -7.047  0.4472E+01  0.3800E+02
     -7.033  0.2947E+00  0.3800E+02
     -7.019  0.1072E+01  0.3801E+02
     -7.006  0.7924E+01  0.3812E+02
     -6.992  0.7142E+01  0.3822E+02
     -6.978  0.2285E+01  0.3825E+02
     -6.964  0.3735E+01  0.3830E+02
     -6.951  0.5091E+01  0.3837E+02
     -6.937  0.5250E+01  0.3845E+02
     -6.923  0.1012E+01  0.3846E+02
     -6.909  0.3946E+01  0.3851E+02
     -6.896  0.4303E+01  0.3857E+02
     -6.882  0.6127E+00  0.3858E+02
     -6.868  0.1555E+01  0.3860E+02
     -6.854  0.3658E+01  0.3865E+02
     -6.841  0.5946E+01  0.3874E+02
     -6.827  0.2923E+01  0.3878E+02
     -6.813  0.5388E+01  0.3885E+02
     -6.799  0.4187E+01  0.3891E+02
     -6.786  0.2873E+01  0.3895E+02
     -6.772  0.5753E+01  0.3903E+02
     -6.758  0.1606E+01  0.3905E+02
     -6.744  0.4001E+01  0.3910E+02
     -6.731  0.1288E+01  0.3912E+02
     -6.717  0.1632E+01  0.3914E+02
     -6.703  0.7759E+01  0.3925E+02
     -6.689  0.2642E+01  0.3929E+02
     -6.676  0.5053E-01  0.3929E+02
     -6.662  0.1089E-02  0.3929E+02
     -6.648  0.2225E+00  0.3929E+02
     -6.634  0.1862E+01  0.3932E+02
     -6.621  0.9444E+00  0.3933E+02
     -6.607  0.1542E+01  0.3935E+02
     -6.593  0.6710E+01  0.3944E+02
     -6.579  0.1012E+02  0.3958E+02
     -6.566  0.8257E+01  0.3969E+02
     -6.552  0.7274E+01  0.3979E+02
     -6.538  0.5017E+01  0.3986E+02
     -6.524  0.3157E+01  0.3991E+02
     -6.511  0.2248E+00  0.3991E+02
     -6.497  0.1054E+01  0.3992E+02
     -6.483  0.4262E+01  0.3998E+02
     -6.469  0.6487E+01  0.4007E+02
     -6.456  0.7079E+01  0.4017E+02
     -6.442  0.2359E+01  0.4020E+02
     -6.428  0.3020E+01  0.4024E+02
     -6.414  0.2759E+01  0.4028E+02
     -6.401  0.1389E+00  0.4028E+02
     -6.387  0.2481E-03  0.4028E+02
     -6.373  0.2922E-02  0.4028E+02
     -6.359  0.3712E+00  0.4029E+02
     -6.346  0.1997E+01  0.4032E+02
     -6.332  0.9755E+00  0.4033E+02
     -6.318  0.3523E+01  0.4038E+02
     -6.304  0.2131E+01  0.4041E+02
     -6.291  0.7745E+00  0.4042E+02
     -6.277  0.3976E+01  0.4047E+02
     -6.263  0.1407E+01  0.4049E+02
     -6.249  0.1452E+01  0.4051E+02
     -6.236  0.2003E+01  0.4054E+02
     -6.222  0.2095E+01  0.4057E+02
     -6.208  0.4448E+00  0.4057E+02
     -6.194  0.1189E+01  0.4059E+02
     -6.181  0.8433E+01  0.4071E+02
     -6.167  0.5435E+01  0.4078E+02
     -6.153  0.3146E+01  0.4082E+02
     -6.140  0.2863E+01  0.4086E+02
     -6.126  0.3331E+01  0.4091E+02
     -6.112  0.1158E+02  0.4107E+02
     -6.098  0.1364E+02  0.4126E+02
     -6.085  0.1153E+02  0.4142E+02
     -6.071  0.2228E+01  0.4145E+02
     -6.057  0.4762E-01  0.4145E+02
     -6.043  0.3883E-04  0.4145E+02
     -6.030  0.6481E-05  0.4145E+02
     -6.016  0.1205E-01  0.4145E+02
     -6.002  0.7106E+00  0.4146E+02
     -5.988  0.1992E+01  0.4148E+02
     -5.975  0.1703E+01  0.4151E+02
     -5.961  0.5988E+01  0.4159E+02
     -5.947  0.8070E+01  0.4170E+02
     -5.933  0.4270E+01  0.4176E+02
     -5.920  0.3030E+01  0.4180E+02
     -5.906  0.4144E+01  0.4186E+02
     -5.892  0.2496E+01  0.4189E+02
     -5.878  0.3031E+01  0.4193E+02
     -5.865  0.3500E+01  0.4198E+02
     -5.851  0.3264E+00  0.4199E+02
     -5.837  0.6915E+00  0.4200E+02
     -5.823  0.4047E+01  0.4205E+02
     -5.810  0.2970E+01  0.4209E+02
     -5.796  0.1917E+01  0.4212E+02
     -5.782  0.5043E+01  0.4219E+02
     -5.768  0.8874E+01  0.4231E+02
     -5.755  0.6290E+01  0.4240E+02
     -5.741  0.7780E+00  0.4241E+02
     -5.727  0.2010E+01  0.4243E+02
     -5.713  0.6100E+00  0.4244E+02
     -5.700  0.1454E+01  0.4246E+02
     -5.686  0.7367E+01  0.4256E+02
     -5.672  0.3350E+01  0.4261E+02
     -5.658  0.3106E+01  0.4265E+02
     -5.645  0.3717E+01  0.4270E+02
     -5.631  0.4177E+01  0.4276E+02
     -5.617  0.9787E+00  0.4277E+02
     -5.603  0.5305E+00  0.4278E+02
     -5.590  0.5379E+01  0.4286E+02
     -5.576  0.8184E+01  0.4297E+02
     -5.562  0.3562E+01  0.4302E+02
     -5.548  0.2897E+01  0.4306E+02
     -5.535  0.3349E+01  0.4310E+02
     -5.521  0.2712E+00  0.4311E+02
     -5.507  0.8267E-03  0.4311E+02
     -5.493  0.2772E-02  0.4311E+02
     -5.480  0.6941E+00  0.4312E+02
     -5.466  0.9212E+01  0.4324E+02
     -5.452  0.1040E+02  0.4339E+02
     -5.438  0.3784E+01  0.4344E+02
     -5.425  0.2923E+01  0.4348E+02
     -5.411  0.1664E+00  0.4348E+02
     -5.397  0.6411E-01  0.4348E+02
     -5.383  0.1343E+01  0.4350E+02
     -5.370  0.1775E+01  0.4352E+02
     -5.356  0.4810E+01  0.4359E+02
     -5.342  0.7039E+01  0.4369E+02
     -5.328  0.7171E+01  0.4379E+02
     -5.315  0.4752E+01  0.4385E+02
     -5.301  0.2306E+00  0.4385E+02
     -5.287  0.1181E-02  0.4385E+02
     -5.273  0.1807E+00  0.4386E+02
     -5.260  0.1804E+01  0.4388E+02
     -5.246  0.1843E+01  0.4391E+02
     -5.232  0.1950E+01  0.4393E+02
     -5.219  0.8321E+00  0.4395E+02
     -5.205  0.3892E+01  0.4400E+02
     -5.191  0.2380E+01  0.4403E+02
     -5.177  0.2744E+01  0.4407E+02
     -5.164  0.6190E+01  0.4415E+02
     -5.150  0.7791E+01  0.4426E+02
     -5.136  0.8480E+01  0.4438E+02
     -5.122  0.1189E+01  0.4439E+02
     -5.109  0.1344E+01  0.4441E+02
     -5.095  0.4599E+01  0.4448E+02
     -5.081  0.2732E+01  0.4451E+02
     -5.067  0.1619E+01  0.4454E+02
     -5.054  0.4011E+01  0.4459E+02
     -5.040  0.7824E+00  0.4460E+02
     -5.026  0.2733E+00  0.4461E+02
     -5.012  0.3495E+01  0.4465E+02
     -4.999  0.6523E+01  0.4474E+02
     -4.985  0.8689E+01  0.4486E+02
     -4.971  0.5051E+01  0.4493E+02
     -4.957  0.7221E+01  0.4503E+02
     -4.944  0.3946E+01  0.4509E+02
     -4.930  0.1910E+01  0.4511E+02
     -4.916  0.4059E+01  0.4517E+02
     -4.902  0.1337E+01  0.4519E+02
     -4.889  0.4180E+01  0.4524E+02
     -4.875  0.1487E+02  0.4545E+02
     -4.861  0.1274E+02  0.4562E+02
     -4.847  0.1222E+01  0.4564E+02
     -4.834  0.9545E+00  0.4565E+02
     -4.820  0.6223E+01  0.4574E+02
     -4.806  0.5944E+01  0.4582E+02
     -4.792  0.3054E+01  0.4586E+02
     -4.779  0.5951E+01  0.4594E+02
     -4.765  0.3243E+01  0.4599E+02
     -4.751  0.6616E+01  0.4608E+02
     -4.737  0.7093E+01  0.4618E+02
     -4.724  0.4819E+01  0.4624E+02
     -4.710  0.1471E+01  0.4626E+02
     -4.696  0.1473E+01  0.4628E+02
     -4.682  0.1698E+01  0.4631E+02
     -4.669  0.4562E+01  0.4637E+02
     -4.655  0.7340E+01  0.4647E+02
     -4.641  0.3907E+01  0.4652E+02
     -4.627  0.8273E+01  0.4664E+02
     -4.614  0.8156E+01  0.4675E+02
     -4.600  0.7003E+01  0.4685E+02
     -4.586  0.2837E+01  0.4689E+02
     -4.572  0.9810E+00  0.4690E+02
     -4.559  0.2867E-01  0.4690E+02
     -4.545  0.5255E+00  0.4691E+02
     -4.531  0.5410E+01  0.4698E+02
     -4.517  0.1043E+02  0.4712E+02
     -4.504  0.6866E+01  0.4722E+02
     -4.490  0.1086E+01  0.4723E+02
     -4.476  0.3540E+01  0.4728E+02
     -4.462  0.7807E+01  0.4739E+02
     -4.449  0.5583E+01  0.4747E+02
     -4.435  0.5411E+01  0.4754E+02
     -4.421  0.2164E+01  0.4757E+02
     -4.407  0.3016E+01  0.4761E+02
     -4.394  0.9713E+01  0.4775E+02
     -4.380  0.1209E+02  0.4791E+02
     -4.366  0.8320E+01  0.4803E+02
     -4.352  0.9985E+01  0.4816E+02
     -4.339  0.1113E+02  0.4832E+02
     -4.325  0.7210E+01  0.4842E+02
     -4.311  0.5079E+01  0.4849E+02
     -4.298  0.4200E+01  0.4854E+02
     -4.284  0.1225E+01  0.4856E+02
     -4.270  0.9605E-01  0.4856E+02
     -4.256  0.2024E+01  0.4859E+02
     -4.243  0.4122E+01  0.4865E+02
     -4.229  0.4249E+01  0.4870E+02
     -4.215  0.3654E+01  0.4875E+02
     -4.201  0.6895E+01  0.4885E+02
     -4.188  0.3084E+01  0.4889E+02
     -4.174  0.1853E+01  0.4892E+02
     -4.160  0.5750E+01  0.4900E+02
     -4.146  0.3333E+01  0.4904E+02
     -4.133  0.7338E+01  0.4914E+02
     -4.119  0.2906E+01  0.4918E+02
     -4.105  0.1187E+01  0.4920E+02
     -4.091  0.1981E+01  0.4923E+02
     -4.078  0.3793E+01  0.4928E+02
     -4.064  0.4401E+01  0.4934E+02
     -4.050  0.7563E+00  0.4935E+02
     -4.036  0.1258E-01  0.4935E+02
     -4.023  0.3644E+00  0.4935E+02
     -4.009  0.3794E+01  0.4941E+02
     -3.995  0.4433E+01  0.4947E+02
     -3.981  0.4662E+00  0.4947E+02
     -3.968  0.5932E-02  0.4947E+02
     -3.954  0.5877E+00  0.4948E+02
     -3.940  0.3912E+01  0.4954E+02
     -3.926  0.2801E+01  0.4957E+02
     -3.913  0.4155E+01  0.4963E+02
     -3.899  0.3458E+01  0.4968E+02
     -3.885  0.3021E+01  0.4972E+02
     -3.871  0.2380E+00  0.4972E+02
     -3.858  0.1258E+01  0.4974E+02
     -3.844  0.1742E+01  0.4977E+02
     -3.830  0.1954E+01  0.4979E+02
     -3.816  0.2835E+01  0.4983E+02
     -3.803  0.1265E+01  0.4985E+02
     -3.789  0.3910E+01  0.4990E+02
     -3.775  0.1010E+02  0.5004E+02
     -3.761  0.6893E+01  0.5014E+02
     -3.748  0.5202E+01  0.5021E+02
     -3.734  0.4346E+01  0.5027E+02
     -3.720  0.4948E+01  0.5033E+02
     -3.706  0.3525E+01  0.5038E+02
     -3.693  0.1005E+01  0.5040E+02
     -3.679  0.2420E+01  0.5043E+02
     -3.665  0.2357E+01  0.5046E+02
     -3.651  0.6387E+00  0.5047E+02
     -3.638  0.3012E+01  0.5051E+02
     -3.624  0.7997E+01  0.5062E+02
     -3.610  0.5854E+01  0.5070E+02
     -3.596  0.3806E+01  0.5076E+02
     -3.583  0.3980E+00  0.5076E+02
     -3.569  0.2020E-02  0.5076E+02
     -3.555  0.4790E-01  0.5076E+02
     -3.541  0.1246E+01  0.5078E+02
     -3.528  0.2629E+01  0.5082E+02
     -3.514  0.1941E+01  0.5084E+02
     -3.500  0.9956E+00  0.5086E+02
     -3.486  0.2558E+01  0.5089E+02
     -3.473  0.2338E+01  0.5092E+02
     -3.459  0.1935E+01  0.5095E+02
     -3.445  0.4309E+01  0.5101E+02
     -3.431  0.1603E+01  0.5103E+02
     -3.418  0.6746E-01  0.5103E+02
     -3.404  0.1689E+01  0.5105E+02
     -3.390  0.4227E+01  0.5111E+02
     -3.377  0.2519E+01  0.5115E+02
     -3.363  0.5837E+00  0.5116E+02
     -3.349  0.2130E+00  0.5116E+02
     -3.335  0.1861E+01  0.5118E+02
     -3.322  0.2521E+01  0.5122E+02
     -3.308  0.5739E+01  0.5130E+02
     -3.294  0.4092E+01  0.5135E+02
     -3.280  0.1838E+01  0.5138E+02
     -3.267  0.4318E+01  0.5144E+02
     -3.253  0.1290E+02  0.5162E+02
     -3.239  0.1093E+02  0.5177E+02
     -3.225  0.5156E+01  0.5184E+02
     -3.212  0.1751E+01  0.5186E+02
     -3.198  0.3915E-01  0.5186E+02
     -3.184  0.2875E-04  0.5186E+02
     -3.170  0.8451E-03  0.5186E+02
     -3.157  0.1985E+00  0.5186E+02
     -3.143  0.1838E+01  0.5189E+02
     -3.129  0.2153E+01  0.5192E+02
     -3.115  0.4072E+01  0.5198E+02
     -3.102  0.1797E+01  0.5200E+02
     -3.088  0.1826E+01  0.5202E+02
     -3.074  0.1967E+00  0.5203E+02
     -3.060  0.8312E-03  0.5203E+02
     -3.047  0.1183E-04  0.5203E+02
     -3.033  0.1734E-01  0.5203E+02
     -3.019  0.8365E+00  0.5204E+02
     -3.005  0.2810E+01  0.5208E+02
     -2.992  0.4296E+01  0.5214E+02
     -2.978  0.1165E+01  0.5215E+02
     -2.964  0.2253E+01  0.5218E+02
     -2.950  0.3452E+01  0.5223E+02
     -2.937  0.1283E+01  0.5225E+02
     -2.923  0.2053E+01  0.5228E+02
     -2.909  0.3421E+01  0.5232E+02
     -2.895  0.2478E+01  0.5236E+02
     -2.882  0.1004E+00  0.5236E+02
     -2.868  0.1404E-03  0.5236E+02
     -2.854  0.2517E-04  0.5236E+02
     -2.840  0.3695E-01  0.5236E+02
     -2.827  0.2006E+01  0.5239E+02
     -2.813  0.9225E+01  0.5251E+02
     -2.799  0.6423E+01  0.5260E+02
     -2.785  0.4313E+00  0.5261E+02
     -2.772  0.1624E-02  0.5261E+02
     -2.758  0.1433E+00  0.5261E+02
     -2.744  0.2787E+01  0.5265E+02
     -2.730  0.2940E+01  0.5269E+02
     -2.717  0.1978E+00  0.5269E+02
     -2.703  0.2241E+01  0.5272E+02
     -2.689  0.9573E+01  0.5285E+02
     -2.675  0.6532E+01  0.5294E+02
     -2.662  0.4665E+01  0.5301E+02
     -2.648  0.3752E+01  0.5306E+02
     -2.634  0.3934E+00  0.5307E+02
     -2.620  0.3142E-02  0.5307E+02
     -2.607  0.2649E+00  0.5307E+02
     -2.593  0.1918E+01  0.5310E+02
     -2.579  0.8195E+00  0.5311E+02
     -2.565  0.3073E-01  0.5311E+02
     -2.552  0.7530E+00  0.5312E+02
     -2.538  0.1952E+01  0.5314E+02
     -2.524  0.3050E+00  0.5315E+02
     -2.510  0.4736E+00  0.5316E+02
     -2.497  0.2020E+01  0.5318E+02
     -2.483  0.5244E+00  0.5319E+02
     -2.469  0.8377E+00  0.5320E+02
     -2.455  0.5444E+01  0.5328E+02
     -2.442  0.3124E+01  0.5332E+02
     -2.428  0.2639E+01  0.5336E+02
     -2.414  0.4398E+01  0.5342E+02
     -2.401  0.1669E+01  0.5344E+02
     -2.387  0.1373E+01  0.5346E+02
     -2.373  0.3973E+01  0.5351E+02
     -2.359  0.7156E+00  0.5352E+02
     -2.346  0.1068E+01  0.5354E+02
     -2.332  0.4038E+01  0.5359E+02
     -2.318  0.9194E+00  0.5361E+02
     -2.304  0.9149E-02  0.5361E+02
     -2.291  0.1190E-02  0.5361E+02
     -2.277  0.2366E+00  0.5361E+02
     -2.263  0.1883E+01  0.5363E+02
     -2.249  0.8798E+00  0.5365E+02
     -2.236  0.2423E-01  0.5365E+02
     -2.222  0.6225E+00  0.5366E+02
     -2.208  0.3921E+01  0.5371E+02
     -2.194  0.1467E+01  0.5373E+02
     -2.181  0.2598E-01  0.5373E+02
     -2.167  0.4262E-02  0.5373E+02
     -2.153  0.4440E+00  0.5374E+02
     -2.139  0.2017E+01  0.5376E+02
     -2.126  0.7123E+00  0.5377E+02
     -2.112  0.2868E+01  0.5381E+02
     -2.098  0.6797E+01  0.5391E+02
     -2.084  0.4761E+01  0.5397E+02
     -2.071  0.1388E+01  0.5399E+02
     -2.057  0.2140E+01  0.5402E+02
     -2.043  0.4082E+01  0.5408E+02
     -2.029  0.4512E+01  0.5414E+02
     -2.016  0.5687E+00  0.5415E+02
     -2.002  0.1504E+01  0.5417E+02
     -1.988  0.1951E+01  0.5419E+02
     -1.974  0.3958E+01  0.5425E+02
     -1.961  0.1533E+01  0.5427E+02
     -1.947  0.2880E-01  0.5427E+02
     -1.933  0.1770E-04  0.5427E+02
     -1.919  0.1388E-02  0.5427E+02
     -1.906  0.1466E+00  0.5427E+02
     -1.892  0.6721E+00  0.5428E+02
     -1.878  0.1845E+00  0.5428E+02
     -1.864  0.2174E-01  0.5428E+02
     -1.851  0.1295E+01  0.5430E+02
     -1.837  0.3988E+01  0.5436E+02
     -1.823  0.7329E+00  0.5437E+02
     -1.809  0.5692E-02  0.5437E+02
     -1.796  0.8270E-03  0.5437E+02
     -1.782  0.2006E+00  0.5437E+02
     -1.768  0.2483E+01  0.5440E+02
     -1.754  0.4931E+01  0.5447E+02
     -1.741  0.1449E+01  0.5449E+02
     -1.727  0.1480E+01  0.5451E+02
     -1.713  0.3926E+01  0.5457E+02
     -1.699  0.6287E+00  0.5457E+02
     -1.686  0.4166E-02  0.5457E+02
     -1.672  0.8010E-05  0.5457E+02
     -1.658  0.1672E-01  0.5457E+02
     -1.644  0.1211E+01  0.5459E+02
     -1.631  0.4019E+01  0.5465E+02
     -1.617  0.1353E+01  0.5467E+02
     -1.603  0.2029E+01  0.5469E+02
     -1.589  0.1245E+01  0.5471E+02
     -1.576  0.4021E+01  0.5477E+02
     -1.562  0.1192E+01  0.5478E+02
     -1.548  0.4528E-01  0.5478E+02
     -1.534  0.1541E+01  0.5480E+02
     -1.521  0.3888E+01  0.5486E+02
     -1.507  0.8468E+00  0.5487E+02
     -1.493  0.3329E+01  0.5491E+02
     -1.480  0.2362E+01  0.5495E+02
     -1.466  0.8753E-01  0.5495E+02
     -1.452  0.1109E-03  0.5495E+02
     -1.438  0.3832E-08  0.5495E+02
     -1.425  0.3354E-14  0.5495E+02
     -1.411  0.1879E-09  0.5495E+02
     -1.397  0.1133E-04  0.5495E+02
     -1.383  0.1983E-01  0.5495E+02
     -1.370  0.1431E+01  0.5497E+02
     -1.356  0.8678E+01  0.5509E+02
     -1.342  0.7322E+01  0.5519E+02
     -1.328  0.6851E+00  0.5520E+02
     -1.315  0.7934E+00  0.5521E+02
     -1.301  0.1933E+01  0.5523E+02
     -1.287  0.2800E+00  0.5524E+02
     -1.273  0.1730E-02  0.5524E+02
     -1.260  0.5336E-01  0.5524E+02
     -1.246  0.1265E+01  0.5526E+02
     -1.232  0.1590E+01  0.5528E+02
     -1.218  0.1418E+00  0.5528E+02
     -1.205  0.1423E+01  0.5530E+02
     -1.191  0.3852E+01  0.5535E+02
     -1.177  0.7330E+00  0.5536E+02
     -1.163  0.5790E+00  0.5537E+02
     -1.150  0.3879E+01  0.5542E+02
     -1.136  0.1557E+01  0.5545E+02
     -1.122  0.2991E-01  0.5545E+02
     -1.108  0.1842E-04  0.5545E+02
     -1.095  0.3023E-09  0.5545E+02
     -1.081  0.1100E-06  0.5545E+02
     -1.067  0.8783E-03  0.5545E+02
     -1.053  0.2025E+00  0.5545E+02
     -1.040  0.1829E+01  0.5547E+02
     -1.026  0.9818E+00  0.5549E+02
     -1.012  0.8865E+00  0.5550E+02
     -0.998  0.1894E+01  0.5553E+02
     -0.985  0.2500E+00  0.5553E+02
     -0.971  0.4819E+00  0.5554E+02
     -0.957  0.2020E+01  0.5556E+02
     -0.943  0.5088E+00  0.5557E+02
     -0.930  0.2973E-01  0.5557E+02
     -0.916  0.1420E+01  0.5559E+02
     -0.902  0.3942E+01  0.5564E+02
     -0.888  0.6512E+00  0.5565E+02
     -0.875  0.4486E-02  0.5565E+02
     -0.861  0.1888E-01  0.5565E+02
     -0.847  0.8570E+00  0.5567E+02
     -0.833  0.1897E+01  0.5569E+02
     -0.820  0.2486E+00  0.5570E+02
     -0.806  0.2783E+00  0.5570E+02
     -0.792  0.1931E+01  0.5573E+02
     -0.778  0.7956E+00  0.5574E+02
     -0.765  0.1575E-01  0.5574E+02
     -0.751  0.1002E-04  0.5574E+02
     -0.737  0.1699E-09  0.5574E+02
     -0.723  0.0000E+00  0.5574E+02
     -0.710  0.0000E+00  0.5574E+02
     -0.696  0.1006E-10  0.5574E+02
     -0.682  0.1569E-05  0.5574E+02
     -0.668  0.6358E-02  0.5574E+02
     -0.655  0.7732E+00  0.5575E+02
     -0.641  0.4033E+01  0.5580E+02
     -0.627  0.2252E+01  0.5583E+02
     -0.613  0.1812E+01  0.5586E+02
     -0.600  0.1844E+00  0.5586E+02
     -0.586  0.7345E-03  0.5586E+02
     -0.572  0.8408E-07  0.5586E+02
     -0.559  0.2462E-12  0.5586E+02
     -0.545  0.0000E+00  0.5586E+02
     -0.531  0.0000E+00  0.5586E+02
     -0.517  0.0000E+00  0.5586E+02
     -0.504  0.0000E+00  0.5586E+02
     -0.490  0.5712E-11  0.5586E+02
     -0.476  0.9043E-06  0.5586E+02
     -0.462  0.3969E-02  0.5586E+02
     -0.449  0.5904E+00  0.5587E+02
     -0.435  0.4274E+01  0.5593E+02
     -0.421  0.2119E+01  0.5596E+02
     -0.407  0.1009E+00  0.5596E+02
     -0.394  0.1148E+01  0.5597E+02
     -0.380  0.1690E+01  0.5600E+02
     -0.366  0.1420E+00  0.5600E+02
     -0.352  0.4497E-03  0.5600E+02
     -0.339  0.4076E-07  0.5600E+02
     -0.325  0.1518E-04  0.5600E+02
     -0.311  0.2027E-01  0.5600E+02
     -0.297  0.8821E+00  0.5601E+02
     -0.284  0.1881E+01  0.5604E+02
     -0.270  0.2356E+00  0.5604E+02
     -0.256  0.1177E-02  0.5604E+02
     -0.242  0.1711E-06  0.5604E+02
     -0.229  0.6385E-12  0.5604E+02
     -0.215  0.0000E+00  0.5604E+02
     -0.201  0.0000E+00  0.5604E+02
     -0.187  0.0000E+00  0.5604E+02
     -0.174  0.2961E-11  0.5604E+02
     -0.160  0.3284E-06  0.5604E+02
     -0.146  0.9539E-03  0.5604E+02
     -0.132  0.8503E-01  0.5604E+02
     -0.119  0.3367E+00  0.5605E+02
     -0.105  0.7989E-01  0.5605E+02
     -0.091  0.8339E-03  0.5605E+02
     -0.077  0.2656E-06  0.5605E+02
     -0.064  0.7536E-06  0.5605E+02
     -0.050  0.3098E-02  0.5605E+02
     -0.036  0.3818E+00  0.5605E+02
     -0.022  0.2000E+01  0.5608E+02
     -0.009  0.6262E+00  0.5609E+02
      0.005  0.9015E-02  0.5609E+02
      0.019  0.4901E-02  0.5609E+02
      0.033  0.4746E+00  0.5610E+02
      0.046  0.2020E+01  0.5612E+02
      0.060  0.5336E+00  0.5613E+02
      0.074  0.8534E+00  0.5614E+02
      0.088  0.1902E+01  0.5617E+02
      0.101  0.2514E+00  0.5617E+02
      0.115  0.1336E-02  0.5617E+02
      0.129  0.1438E-02  0.5617E+02
      0.143  0.2610E+00  0.5618E+02
      0.156  0.1913E+01  0.5620E+02
      0.170  0.8274E+00  0.5621E+02
      0.184  0.1732E-01  0.5621E+02
      0.198  0.2546E-03  0.5621E+02
      0.211  0.1014E+00  0.5622E+02
      0.225  0.1546E+01  0.5624E+02
      0.239  0.1361E+01  0.5626E+02
      0.253  0.2435E+01  0.5629E+02
      0.266  0.5778E+01  0.5637E+02
      0.280  0.8541E+00  0.5638E+02
      0.294  0.5410E-02  0.5638E+02
      0.308  0.3761E-01  0.5638E+02
      0.321  0.1133E+01  0.5640E+02
      0.335  0.2851E+01  0.5644E+02
      0.349  0.4178E+01  0.5649E+02
      0.363  0.8563E+00  0.5651E+02
      0.376  0.3239E+00  0.5651E+02
      0.390  0.3863E+01  0.5656E+02
      0.404  0.6824E+01  0.5666E+02
      0.417  0.3816E+01  0.5671E+02
      0.431  0.2816E+00  0.5671E+02
      0.445  0.9177E-03  0.5671E+02
      0.459  0.5015E-01  0.5671E+02
      0.472  0.1919E+01  0.5674E+02
      0.486  0.3663E+01  0.5679E+02
      0.500  0.5596E+00  0.5680E+02
      0.514  0.1723E+01  0.5682E+02
      0.527  0.1525E+01  0.5684E+02
      0.541  0.3684E+01  0.5689E+02
      0.555  0.1929E+01  0.5692E+02
      0.569  0.5195E+00  0.5693E+02
      0.582  0.3757E+01  0.5698E+02
      0.596  0.1773E+01  0.5700E+02
      0.610  0.4108E-01  0.5700E+02
      0.624  0.1118E-01  0.5700E+02
      0.637  0.6872E+00  0.5701E+02
      0.651  0.1980E+01  0.5704E+02
      0.665  0.3725E+00  0.5705E+02
      0.679  0.1618E+01  0.5707E+02
      0.692  0.3848E+01  0.5712E+02
      0.706  0.5452E+00  0.5713E+02
      0.720  0.6044E+00  0.5714E+02
      0.734  0.3904E+01  0.5719E+02
      0.747  0.1504E+01  0.5721E+02
      0.761  0.2754E-01  0.5721E+02
      0.775  0.4252E-02  0.5721E+02
      0.789  0.4696E+00  0.5722E+02
      0.802  0.3508E+01  0.5727E+02
      0.816  0.4461E+01  0.5733E+02
      0.830  0.7392E+00  0.5734E+02
      0.844  0.2661E+01  0.5737E+02
      0.857  0.3064E+01  0.5742E+02
      0.871  0.1963E+00  0.5742E+02
      0.885  0.4924E-03  0.5742E+02
      0.899  0.4594E-01  0.5742E+02
      0.912  0.2296E+01  0.5745E+02
      0.926  0.7549E+01  0.5755E+02
      0.940  0.3966E+01  0.5761E+02
      0.954  0.3799E+01  0.5766E+02
      0.967  0.7301E+00  0.5767E+02
      0.981  0.3320E+01  0.5772E+02
      0.995  0.2387E+01  0.5775E+02
      1.009  0.1310E+01  0.5777E+02
      1.022  0.6559E+01  0.5786E+02
      1.036  0.4035E+01  0.5791E+02
      1.050  0.1543E+01  0.5793E+02
      1.064  0.3995E+01  0.5799E+02
      1.077  0.7475E+00  0.5800E+02
      1.091  0.5928E-02  0.5800E+02
      1.105  0.1408E-05  0.5800E+02
      1.119  0.8668E-07  0.5800E+02
      1.132  0.7497E-03  0.5800E+02
      1.146  0.1877E+00  0.5800E+02
      1.160  0.2056E+01  0.5803E+02
      1.174  0.2935E+01  0.5807E+02
      1.187  0.1730E+01  0.5809E+02
      1.201  0.1909E+01  0.5812E+02
      1.215  0.2430E+00  0.5812E+02
      1.229  0.4486E-01  0.5813E+02
      1.242  0.8714E+00  0.5814E+02
      1.256  0.6070E+01  0.5822E+02
      1.270  0.1011E+02  0.5836E+02
      1.284  0.2238E+01  0.5839E+02
      1.297  0.3220E+01  0.5843E+02
      1.311  0.2593E+01  0.5847E+02
      1.325  0.2350E+01  0.5850E+02
      1.338  0.3423E+01  0.5855E+02
      1.352  0.6861E+00  0.5856E+02
      1.366  0.3633E+01  0.5861E+02
      1.380  0.2652E+01  0.5865E+02
      1.393  0.4340E+01  0.5871E+02
      1.407  0.3968E+01  0.5876E+02
      1.421  0.4023E+01  0.5881E+02
      1.435  0.3442E+01  0.5886E+02
      1.448  0.1510E+01  0.5888E+02
      1.462  0.3199E+01  0.5893E+02
      1.476  0.2174E+01  0.5896E+02
      1.490  0.3606E+01  0.5901E+02
      1.503  0.2214E+01  0.5904E+02
      1.517  0.2086E+01  0.5907E+02
      1.531  0.5167E+00  0.5907E+02
      1.545  0.5902E-02  0.5907E+02
      1.558  0.3240E-01  0.5907E+02
      1.572  0.1652E+01  0.5910E+02
      1.586  0.5025E+01  0.5916E+02
      1.600  0.2238E+01  0.5920E+02
      1.613  0.1715E+01  0.5922E+02
      1.627  0.8124E+01  0.5933E+02
      1.641  0.9500E+01  0.5946E+02
      1.655  0.6418E+01  0.5955E+02
      1.668  0.1625E+01  0.5957E+02
      1.682  0.1593E+01  0.5959E+02
      1.696  0.1290E+01  0.5961E+02
      1.710  0.2145E+00  0.5961E+02
      1.723  0.3921E+01  0.5967E+02
      1.737  0.8735E+01  0.5979E+02
      1.751  0.2250E+01  0.5982E+02
      1.765  0.4262E-01  0.5982E+02
      1.778  0.3572E+00  0.5983E+02
      1.792  0.1993E+01  0.5985E+02
      1.806  0.1261E+01  0.5987E+02
      1.820  0.5055E+01  0.5994E+02
      1.833  0.3250E+01  0.5998E+02
      1.847  0.1645E+00  0.5999E+02
      1.861  0.2024E+00  0.5999E+02
      1.875  0.3089E+01  0.6003E+02
      1.888  0.2753E+01  0.6007E+02
      1.902  0.1782E+01  0.6009E+02
      1.916  0.2251E+01  0.6012E+02
      1.930  0.1827E+01  0.6015E+02
      1.943  0.1773E+00  0.6015E+02
      1.957  0.9457E-01  0.6015E+02
      1.971  0.2744E+01  0.6019E+02
      1.985  0.5298E+01  0.6026E+02
      1.998  0.2062E+01  0.6029E+02
      2.012  0.3848E+01  0.6035E+02
      2.026  0.1041E+01  0.6036E+02
      2.040  0.2104E-01  0.6036E+02
      2.053  0.4447E+00  0.6037E+02
      2.067  0.2196E+01  0.6040E+02
      2.081  0.2748E+01  0.6043E+02
      2.095  0.2902E+01  0.6047E+02
      2.108  0.4055E+01  0.6053E+02
      2.122  0.7328E+00  0.6054E+02
      2.136  0.6435E-01  0.6054E+02
      2.150  0.1583E+01  0.6056E+02
      2.163  0.3509E+01  0.6061E+02
      2.177  0.8758E+00  0.6062E+02
      2.191  0.1077E+00  0.6062E+02
      2.205  0.2454E+01  0.6066E+02
      2.218  0.4461E+01  0.6072E+02
      2.232  0.1919E+01  0.6075E+02
      2.246  0.3074E+00  0.6075E+02
      2.259  0.3472E+01  0.6080E+02
      2.273  0.5709E+01  0.6088E+02
      2.287  0.5865E+01  0.6096E+02
      2.301  0.2799E+01  0.6100E+02
      2.314  0.1758E+00  0.6100E+02
      2.328  0.2522E+01  0.6103E+02
      2.342  0.5503E+01  0.6111E+02
      2.356  0.9947E+00  0.6112E+02
      2.369  0.2415E+01  0.6115E+02
      2.383  0.1140E+02  0.6131E+02
      2.397  0.4200E+01  0.6137E+02
      2.411  0.8309E-01  0.6137E+02
      2.424  0.5563E-04  0.6137E+02
      2.438  0.1020E-08  0.6137E+02
      2.452  0.0000E+00  0.6137E+02
      2.466  0.0000E+00  0.6137E+02
      2.479  0.0000E+00  0.6137E+02
      2.493  0.3763E-10  0.6137E+02
      2.507  0.4605E-05  0.6137E+02
      2.521  0.1491E-01  0.6137E+02
      2.534  0.1537E+01  0.6139E+02
      2.548  0.7957E+01  0.6150E+02
      2.562  0.6102E+01  0.6158E+02
      2.576  0.5220E+01  0.6166E+02
      2.589  0.2716E+01  0.6169E+02
      2.603  0.1453E+01  0.6171E+02
      2.617  0.1947E+01  0.6174E+02
      2.631  0.1484E+01  0.6176E+02
      2.644  0.3825E+01  0.6181E+02
      2.658  0.9564E+00  0.6183E+02
      2.672  0.3639E-01  0.6183E+02
      2.686  0.9171E+00  0.6184E+02
      2.699  0.1861E+01  0.6187E+02
      2.713  0.4736E+00  0.6187E+02
      2.727  0.1951E+01  0.6190E+02
      2.741  0.2297E+01  0.6193E+02
      2.754  0.4140E+01  0.6199E+02
      2.768  0.5730E+01  0.6207E+02
      2.782  0.3496E+01  0.6211E+02
      2.796  0.3242E+00  0.6212E+02
      2.809  0.1376E+01  0.6214E+02
      2.823  0.1498E+01  0.6216E+02
      2.837  0.7560E+00  0.6217E+02
      2.851  0.3919E+01  0.6222E+02
      2.864  0.1008E+02  0.6236E+02
      2.878  0.3382E+01  0.6241E+02
      2.892  0.6157E-01  0.6241E+02
      2.906  0.3881E-04  0.6241E+02
      2.919  0.1668E-02  0.6241E+02
      2.933  0.3941E+00  0.6241E+02
      2.947  0.3640E+01  0.6246E+02
      2.961  0.2313E+01  0.6250E+02
      2.974  0.3622E+01  0.6255E+02
      2.988  0.2056E+01  0.6257E+02
      3.002  0.5078E+00  0.6258E+02
      3.016  0.2018E+01  0.6261E+02
      3.029  0.5440E+00  0.6262E+02
      3.043  0.6937E-02  0.6262E+02
      3.057  0.1695E+00  0.6262E+02
      3.071  0.2943E+01  0.6266E+02
      3.084  0.3973E+01  0.6271E+02
      3.098  0.9830E+01  0.6285E+02
      3.112  0.7152E+01  0.6295E+02
      3.126  0.3098E+01  0.6299E+02
      3.139  0.4899E+01  0.6306E+02
      3.153  0.1228E+01  0.6307E+02
      3.167  0.1383E+01  0.6309E+02
      3.180  0.1959E+01  0.6312E+02
      3.194  0.2718E+01  0.6316E+02
      3.208  0.5663E+01  0.6323E+02
      3.222  0.1014E+01  0.6325E+02
      3.235  0.2552E+01  0.6328E+02
      3.249  0.6374E+01  0.6337E+02
      3.263  0.5992E+01  0.6345E+02
      3.277  0.4318E+01  0.6351E+02
      3.290  0.1656E+01  0.6354E+02
      3.304  0.8688E+00  0.6355E+02
      3.318  0.3512E+01  0.6360E+02
      3.332  0.1634E+01  0.6362E+02
      3.345  0.6193E-01  0.6362E+02
      3.359  0.2723E-03  0.6362E+02
      3.373  0.8497E-01  0.6362E+02
      3.387  0.1468E+01  0.6364E+02
      3.400  0.1406E+01  0.6366E+02
      3.414  0.7602E+00  0.6367E+02
      3.428  0.2193E+01  0.6370E+02
      3.442  0.4660E+01  0.6376E+02
      3.455  0.9384E+01  0.6389E+02
      3.469  0.6359E+01  0.6398E+02
      3.483  0.5814E+01  0.6406E+02
      3.497  0.1086E+01  0.6408E+02
      3.510  0.4681E-01  0.6408E+02
      3.524  0.2448E+01  0.6411E+02
      3.538  0.1019E+02  0.6425E+02
      3.552  0.1394E+02  0.6444E+02
      3.565  0.7702E+01  0.6455E+02
      3.579  0.4256E+01  0.6461E+02
      3.593  0.7003E+00  0.6462E+02
      3.607  0.7456E+00  0.6463E+02
      3.620  0.4131E+01  0.6468E+02
      3.634  0.5152E+01  0.6475E+02
      3.648  0.7340E+01  0.6485E+02
      3.662  0.2796E+01  0.6489E+02
      3.675  0.9707E+00  0.6491E+02
      3.689  0.1222E+01  0.6492E+02
      3.703  0.4015E+01  0.6498E+02
      3.717  0.8055E+00  0.6499E+02
      3.730  0.1412E+00  0.6499E+02
      3.744  0.2733E+01  0.6503E+02
      3.758  0.3403E+01  0.6508E+02
      3.772  0.3386E+01  0.6512E+02
      3.785  0.7370E+01  0.6522E+02
      3.799  0.3875E+01  0.6528E+02
      3.813  0.6388E+00  0.6529E+02
      3.827  0.5484E+00  0.6529E+02
      3.840  0.5880E+01  0.6537E+02
      3.854  0.5497E+01  0.6545E+02
      3.868  0.1998E+01  0.6548E+02
      3.882  0.3563E+01  0.6553E+02
      3.895  0.8131E+01  0.6564E+02
      3.909  0.8128E+01  0.6575E+02
      3.923  0.9016E+01  0.6587E+02
      3.937  0.3967E+01  0.6593E+02
      3.950  0.2657E+01  0.6596E+02
      3.964  0.7752E+01  0.6607E+02
      3.978  0.3326E+01  0.6612E+02
      3.992  0.1321E+01  0.6614E+02
      4.005  0.6849E+01  0.6623E+02
      4.019  0.8155E+01  0.6634E+02
      4.033  0.7781E+01  0.6645E+02
      4.047  0.8013E+01  0.6656E+02
      4.060  0.2591E+01  0.6659E+02
      4.074  0.2535E+01  0.6663E+02
      4.088  0.7239E+01  0.6673E+02
      4.102  0.8998E+01  0.6685E+02
      4.115  0.6381E+01  0.6694E+02
      4.129  0.6137E+00  0.6695E+02
      4.143  0.5865E+00  0.6696E+02
      4.156  0.2011E+01  0.6698E+02
      4.170  0.4150E+00  0.6699E+02
      4.184  0.6568E-01  0.6699E+02
      4.198  0.2577E+01  0.6703E+02
      4.211  0.7525E+01  0.6713E+02
      4.225  0.7385E+01  0.6723E+02
      4.239  0.3430E+01  0.6728E+02
      4.253  0.1006E+01  0.6729E+02
      4.266  0.6840E+01  0.6739E+02
      4.280  0.1189E+02  0.6755E+02
      4.294  0.8384E+01  0.6766E+02
      4.308  0.3257E+01  0.6771E+02
      4.321  0.7097E+01  0.6781E+02
      4.335  0.8163E+01  0.6792E+02
      4.349  0.3265E+01  0.6796E+02
      4.363  0.4013E+01  0.6802E+02
      4.376  0.2824E+01  0.6806E+02
      4.390  0.1043E+02  0.6820E+02
      4.404  0.8012E+01  0.6831E+02
      4.418  0.5098E+01  0.6838E+02
      4.431  0.4079E+01  0.6844E+02
      4.445  0.1306E+01  0.6846E+02
      4.459  0.4712E+01  0.6852E+02
      4.473  0.1094E+02  0.6867E+02
      4.486  0.4707E+01  0.6874E+02
      4.500  0.3905E+01  0.6879E+02
      4.514  0.2205E+01  0.6882E+02
      4.528  0.3436E+01  0.6887E+02
      4.541  0.3900E+01  0.6892E+02
      4.555  0.1555E+01  0.6894E+02
      4.569  0.2707E+01  0.6898E+02
      4.583  0.4982E+01  0.6905E+02
      4.596  0.1306E+01  0.6907E+02
      4.610  0.2832E+00  0.6907E+02
      4.624  0.2516E+01  0.6910E+02
      4.638  0.6496E+01  0.6919E+02
      4.651  0.1260E+02  0.6937E+02
      4.665  0.5265E+01  0.6944E+02
      4.679  0.2962E+01  0.6948E+02
      4.693  0.5428E+01  0.6955E+02
      4.706  0.2417E+01  0.6959E+02
      4.720  0.6068E+01  0.6967E+02
      4.734  0.5613E+01  0.6975E+02
      4.748  0.3426E+01  0.6979E+02
      4.761  0.6643E+01  0.6989E+02
      4.775  0.1232E+02  0.7006E+02
      4.789  0.1239E+02  0.7023E+02
      4.803  0.4590E+01  0.7029E+02
      4.816  0.4694E+01  0.7035E+02
      4.830  0.5888E+01  0.7043E+02
      4.844  0.8297E+01  0.7055E+02
      4.858  0.4178E+01  0.7061E+02
      4.871  0.4982E+01  0.7067E+02
      4.885  0.7811E+01  0.7078E+02
      4.899  0.2411E+01  0.7081E+02
      4.913  0.1731E+01  0.7084E+02
      4.926  0.9035E+01  0.7096E+02
      4.940  0.4274E+01  0.7102E+02
      4.954  0.1190E+01  0.7104E+02
      4.968  0.3076E+01  0.7108E+02
      4.981  0.2407E+01  0.7111E+02
      4.995  0.5211E+01  0.7118E+02
      5.009  0.3847E+01  0.7124E+02
      5.023  0.4699E+01  0.7130E+02
      5.036  0.4153E+01  0.7136E+02
      5.050  0.3416E+01  0.7141E+02
      5.064  0.9726E+01  0.7154E+02
      5.077  0.1046E+02  0.7168E+02
      5.091  0.3691E+01  0.7173E+02
      5.105  0.4921E+01  0.7180E+02
      5.119  0.8905E+01  0.7192E+02
      5.132  0.1435E+02  0.7212E+02
      5.146  0.1468E+02  0.7232E+02
      5.160  0.6062E+01  0.7241E+02
      5.174  0.6254E+01  0.7249E+02
      5.187  0.6319E+01  0.7258E+02
      5.201  0.2070E+01  0.7261E+02
      5.215  0.1396E+01  0.7263E+02
      5.229  0.5553E+01  0.7270E+02
      5.242  0.5837E+01  0.7278E+02
      5.256  0.1015E+02  0.7292E+02
      5.270  0.9700E+01  0.7306E+02
      5.284  0.5269E+01  0.7313E+02
      5.297  0.7212E+01  0.7323E+02
      5.311  0.1098E+02  0.7338E+02
      5.325  0.8931E+01  0.7350E+02
      5.339  0.8358E+01  0.7362E+02
      5.352  0.3247E+01  0.7366E+02
      5.366  0.6000E+01  0.7374E+02
      5.380  0.1977E+01  0.7377E+02
      5.394  0.8909E+00  0.7378E+02
      5.407  0.2607E+01  0.7382E+02
      5.421  0.7205E+01  0.7392E+02
      5.435  0.6222E+01  0.7400E+02
      5.449  0.5831E+01  0.7408E+02
      5.462  0.1125E+02  0.7424E+02
      5.476  0.8014E+01  0.7435E+02
      5.490  0.2344E+01  0.7438E+02
      5.504  0.2560E+01  0.7442E+02
      5.517  0.2219E+01  0.7445E+02
      5.531  0.5872E+01  0.7453E+02
      5.545  0.6173E+01  0.7461E+02
      5.559  0.2481E+01  0.7465E+02
      5.572  0.3780E+01  0.7470E+02
      5.586  0.5166E+01  0.7477E+02
      5.600  0.9177E+01  0.7490E+02
      5.614  0.8590E+01  0.7501E+02
      5.627  0.1124E+02  0.7517E+02
      5.641  0.5260E+01  0.7524E+02
      5.655  0.2737E+01  0.7528E+02
      5.669  0.9103E+01  0.7540E+02
      5.682  0.1479E+02  0.7561E+02
      5.696  0.1528E+02  0.7582E+02
      5.710  0.7077E+01  0.7591E+02
      5.724  0.6822E+01  0.7601E+02
      5.737  0.9553E+01  0.7614E+02
      5.751  0.3030E+01  0.7618E+02
      5.765  0.4065E+01  0.7624E+02
      5.779  0.7161E+01  0.7634E+02
      5.792  0.7964E+00  0.7635E+02
      5.806  0.2170E-01  0.7635E+02
      5.820  0.1065E+01  0.7636E+02
      5.834  0.4798E+01  0.7643E+02
      5.847  0.5905E+01  0.7651E+02
      5.861  0.4064E+01  0.7656E+02
      5.875  0.6332E+01  0.7665E+02
      5.889  0.8226E+01  0.7676E+02
      5.902  0.1576E+02  0.7698E+02
      5.916  0.1264E+02  0.7715E+02
      5.930  0.7605E+01  0.7726E+02
      5.944  0.9186E+01  0.7739E+02
      5.957  0.3538E+01  0.7743E+02
      5.971  0.2200E+01  0.7746E+02
      5.985  0.2318E+01  0.7750E+02
      5.998  0.5917E+01  0.7758E+02
      6.012  0.7317E+01  0.7768E+02
      6.026  0.7023E+01  0.7777E+02
      6.040  0.1197E+02  0.7794E+02
      6.053  0.9750E+01  0.7807E+02
      6.067  0.3960E+01  0.7813E+02
      6.081  0.1172E+02  0.7829E+02
      6.095  0.1148E+02  0.7845E+02
      6.108  0.3136E+01  0.7849E+02
      6.122  0.7982E+01  0.7860E+02
      6.136  0.6927E+01  0.7869E+02
      6.150  0.4757E+01  0.7876E+02
      6.163  0.2502E+01  0.7879E+02
      6.177  0.1511E+01  0.7882E+02
      6.191  0.3961E+01  0.7887E+02
      6.205  0.7450E+00  0.7888E+02
      6.218  0.2509E+01  0.7891E+02
      6.232  0.6680E+01  0.7901E+02
      6.246  0.5409E+01  0.7908E+02
      6.260  0.1065E+02  0.7923E+02
      6.273  0.9543E+01  0.7936E+02
      6.287  0.4087E+01  0.7941E+02
      6.301  0.5072E+00  0.7942E+02
      6.315  0.2495E+01  0.7946E+02
      6.328  0.7831E+01  0.7956E+02
      6.342  0.4506E+01  0.7963E+02
      6.356  0.4578E+01  0.7969E+02
      6.370  0.1447E+02  0.7989E+02
      6.383  0.1128E+02  0.8004E+02
      6.397  0.1067E+02  0.8019E+02
      6.411  0.7650E+01  0.8029E+02
      6.425  0.9329E+01  0.8042E+02
      6.438  0.5288E+01  0.8049E+02
      6.452  0.5085E+00  0.8050E+02
      6.466  0.3313E+01  0.8055E+02
      6.480  0.4702E+01  0.8061E+02
      6.493  0.3534E+01  0.8066E+02
      6.507  0.1126E+01  0.8068E+02
      6.521  0.4026E+01  0.8073E+02
      6.535  0.1804E+01  0.8076E+02
      6.548  0.5915E+01  0.8084E+02
      6.562  0.1253E+02  0.8101E+02
      6.576  0.7462E+01  0.8111E+02
      6.590  0.9868E+01  0.8125E+02
      6.603  0.6051E+01  0.8133E+02
      6.617  0.3009E+01  0.8137E+02
      6.631  0.2484E+01  0.8141E+02
      6.645  0.2236E+01  0.8144E+02
      6.658  0.6471E+01  0.8153E+02
      6.672  0.6294E+01  0.8161E+02
      6.686  0.6667E+01  0.8170E+02
      6.700  0.5833E+01  0.8178E+02
      6.713  0.4640E+01  0.8185E+02
      6.727  0.8588E+01  0.8197E+02
      6.741  0.2822E+01  0.8201E+02
      6.755  0.2542E+01  0.8204E+02
      6.768  0.2253E+01  0.8207E+02
      6.782  0.1562E+01  0.8209E+02
      6.796  0.6658E+01  0.8218E+02
      6.810  0.6452E+01  0.8227E+02
      6.823  0.1402E+01  0.8229E+02
      6.837  0.5270E+01  0.8236E+02
      6.851  0.8262E+01  0.8248E+02
      6.865  0.5938E+01  0.8256E+02
      6.878  0.1701E+01  0.8258E+02
      6.892  0.5783E+01  0.8266E+02
      6.906  0.1060E+02  0.8281E+02
      6.919  0.9069E+01  0.8293E+02
      6.933  0.5583E+01  0.8301E+02
      6.947  0.3236E+01  0.8305E+02
      6.961  0.1814E+01  0.8308E+02
      6.974  0.5305E+01  0.8315E+02
      6.988  0.4065E+01  0.8321E+02
      7.002  0.2194E+01  0.8324E+02
      7.016  0.5037E+01  0.8331E+02
      7.029  0.8826E+01  0.8343E+02
      7.043  0.7333E+01  0.8353E+02
      7.057  0.5625E+01  0.8361E+02
      7.071  0.8764E+01  0.8373E+02
      7.084  0.3624E+01  0.8378E+02
      7.098  0.1295E+00  0.8378E+02
      7.112  0.8132E+00  0.8379E+02
      7.126  0.2813E+01  0.8383E+02
      7.139  0.3403E+01  0.8388E+02
      7.153  0.5960E+01  0.8396E+02
      7.167  0.8507E+01  0.8407E+02
      7.181  0.8072E+01  0.8419E+02
      7.194  0.8732E+01  0.8431E+02
      7.208  0.1296E+02  0.8448E+02
      7.222  0.1462E+02  0.8468E+02
      7.236  0.3485E+01  0.8473E+02
      7.249  0.9583E-01  0.8473E+02
      7.263  0.4868E-02  0.8473E+02
      7.277  0.4016E+00  0.8474E+02
      7.291  0.4511E+01  0.8480E+02
      7.304  0.1308E+02  0.8498E+02
      7.318  0.1451E+02  0.8518E+02
      7.332  0.6854E+01  0.8527E+02
      7.346  0.1734E+01  0.8530E+02
      7.359  0.7564E+01  0.8540E+02
      7.373  0.1210E+02  0.8557E+02
      7.387  0.7536E+01  0.8567E+02
      7.401  0.9602E+01  0.8580E+02
      7.414  0.1044E+02  0.8595E+02
      7.428  0.7695E+01  0.8605E+02
      7.442  0.1176E+02  0.8622E+02
      7.456  0.1052E+02  0.8636E+02
      7.469  0.7166E+01  0.8646E+02
      7.483  0.9116E+01  0.8658E+02
      7.497  0.9517E+01  0.8671E+02
      7.511  0.7976E+01  0.8682E+02
      7.524  0.9614E+01  0.8696E+02
      7.538  0.6154E+01  0.8704E+02
      7.552  0.8043E+01  0.8715E+02
      7.566  0.7235E+01  0.8725E+02
      7.579  0.7020E+01  0.8735E+02
      7.593  0.1059E+02  0.8749E+02
      7.607  0.4818E+01  0.8756E+02
      7.621  0.3864E+01  0.8761E+02
      7.634  0.9869E+01  0.8775E+02
      7.648  0.9636E+01  0.8788E+02
      7.662  0.3017E+01  0.8792E+02
      7.676  0.4886E+01  0.8799E+02
      7.689  0.1063E+02  0.8814E+02
      7.703  0.1071E+02  0.8828E+02
      7.717  0.1654E+02  0.8851E+02
      7.731  0.1098E+02  0.8866E+02
      7.744  0.7035E+01  0.8876E+02
      7.758  0.3832E+01  0.8881E+02
      7.772  0.5678E+01  0.8889E+02
      7.786  0.1043E+02  0.8903E+02
      7.799  0.9089E+01  0.8916E+02
      7.813  0.1015E+02  0.8930E+02
      7.827  0.3385E+01  0.8934E+02
      7.841  0.5454E+01  0.8942E+02
      7.854  0.1250E+02  0.8959E+02
      7.868  0.1612E+02  0.8981E+02
      7.882  0.6487E+01  0.8990E+02
      7.895  0.6083E+01  0.8998E+02
      7.909  0.1497E+02  0.9019E+02
      7.923  0.8315E+01  0.9030E+02
      7.937  0.3341E+01  0.9035E+02
      7.950  0.2268E+01  0.9038E+02
      7.964  0.7384E+01  0.9048E+02
      7.978  0.9359E+01  0.9061E+02
      7.992  0.3881E+01  0.9066E+02
      8.005  0.5982E+01  0.9075E+02
      8.019  0.8880E+01  0.9087E+02
      8.033  0.8678E+01  0.9099E+02
      8.047  0.1882E+02  0.9125E+02
      8.060  0.1565E+02  0.9146E+02
      8.074  0.1190E+02  0.9163E+02
      8.088  0.8085E+01  0.9174E+02
      8.102  0.7695E+00  0.9175E+02
      8.115  0.2017E+01  0.9177E+02
      8.129  0.6407E+01  0.9186E+02
      8.143  0.1342E+02  0.9205E+02
      8.157  0.1344E+02  0.9223E+02
      8.170  0.1667E+02  0.9246E+02
      8.184  0.8659E+01  0.9258E+02
      8.198  0.1169E+02  0.9274E+02
      8.212  0.1318E+02  0.9292E+02
      8.225  0.7752E+01  0.9303E+02
      8.239  0.4025E+01  0.9308E+02
      8.253  0.1209E+02  0.9325E+02
      8.267  0.2033E+02  0.9353E+02
      8.280  0.1275E+02  0.9370E+02
      8.294  0.9337E+01  0.9383E+02
      8.308  0.8239E+01  0.9395E+02
      8.322  0.7609E+01  0.9405E+02
      8.335  0.7692E+01  0.9416E+02
      8.349  0.1643E+02  0.9438E+02
      8.363  0.8612E+01  0.9450E+02
      8.377  0.8112E+01  0.9461E+02
      8.390  0.8631E+01  0.9473E+02
      8.404  0.6535E+01  0.9482E+02
      8.418  0.1480E+02  0.9502E+02
      8.432  0.1900E+02  0.9529E+02
      8.445  0.1125E+02  0.9544E+02
      8.459  0.3881E+01  0.9549E+02
      8.473  0.7543E+01  0.9560E+02
      8.487  0.1176E+02  0.9576E+02
      8.500  0.1056E+02  0.9590E+02
      8.514  0.1581E+02  0.9612E+02
      8.528  0.1156E+02  0.9628E+02
      8.542  0.5552E+01  0.9636E+02
      8.555  0.1362E+02  0.9654E+02
      8.569  0.1005E+02  0.9668E+02
      8.583  0.1508E+02  0.9689E+02
      8.597  0.1539E+02  0.9710E+02
      8.610  0.2254E+02  0.9741E+02
      8.624  0.9869E+01  0.9755E+02
      8.638  0.5005E+01  0.9762E+02
      8.652  0.4394E+01  0.9768E+02
      8.665  0.1058E+02  0.9782E+02
      8.679  0.9011E+01  0.9795E+02
      8.693  0.8182E+01  0.9806E+02
      8.707  0.6490E+01  0.9815E+02
      8.720  0.1511E+02  0.9835E+02
      8.734  0.1288E+02  0.9853E+02
      8.748  0.7041E+01  0.9863E+02
      8.762  0.2955E+01  0.9867E+02
      8.775  0.1232E+02  0.9884E+02
      8.789  0.1498E+02  0.9904E+02
      8.803  0.6676E+01  0.9914E+02
      8.816  0.1039E+02  0.9928E+02
      8.830  0.7855E+01  0.9939E+02
      8.844  0.7163E+01  0.9949E+02
      8.858  0.1309E+02  0.9967E+02
      8.871  0.8034E+01  0.9978E+02
      8.885  0.1404E+02  0.9997E+02
      8.899  0.1353E+02  0.1002E+03
      8.913  0.1805E+02  0.1004E+03
      8.926  0.1745E+02  0.1006E+03
      8.940  0.1518E+02  0.1009E+03
      8.954  0.5658E+01  0.1009E+03
      8.968  0.1184E+02  0.1011E+03
      8.981  0.1043E+02  0.1012E+03
      8.995  0.7082E+01  0.1013E+03
      9.009  0.1036E+02  0.1015E+03
      9.023  0.9456E+01  0.1016E+03
      9.036  0.6659E+01  0.1017E+03
      9.050  0.1845E+01  0.1017E+03
      9.064  0.2565E+01  0.1018E+03
      9.078  0.1083E+02  0.1019E+03
      9.091  0.1111E+02  0.1021E+03
      9.105  0.1554E+02  0.1023E+03
      9.119  0.1089E+02  0.1024E+03
      9.133  0.4604E+01  0.1025E+03
      9.146  0.1047E+02  0.1026E+03
      9.160  0.9369E+01  0.1028E+03
      9.174  0.5950E+01  0.1028E+03
      9.188  0.3276E+01  0.1029E+03
      9.201  0.3827E+01  0.1029E+03
      9.215  0.4581E+01  0.1030E+03
      9.229  0.5630E+01  0.1031E+03
      9.243  0.1331E+02  0.1033E+03
      9.256  0.1734E+02  0.1035E+03
      9.270  0.1080E+02  0.1036E+03
      9.284  0.1663E+02  0.1039E+03
      9.298  0.1861E+02  0.1041E+03
      9.311  0.1060E+02  0.1043E+03
      9.325  0.1061E+02  0.1044E+03
      9.339  0.1064E+02  0.1046E+03
      9.353  0.4675E+01  0.1046E+03
      9.366  0.1024E+01  0.1046E+03
      9.380  0.3762E+01  0.1047E+03
      9.394  0.1394E+01  0.1047E+03
      9.408  0.8231E+00  0.1047E+03
      9.421  0.8781E+01  0.1049E+03
      9.435  0.9387E+01  0.1050E+03
      9.449  0.1704E+02  0.1052E+03
      9.463  0.1466E+02  0.1054E+03
      9.476  0.5723E+01  0.1055E+03
      9.490  0.6561E+01  0.1056E+03
      9.504  0.1397E+01  0.1056E+03
      9.518  0.1877E+01  0.1056E+03
      9.531  0.9481E+00  0.1056E+03
      9.545  0.6629E+01  0.1057E+03
      9.559  0.9434E+01  0.1059E+03
      9.573  0.6981E+01  0.1060E+03
      9.586  0.1049E+02  0.1061E+03
      9.600  0.1631E+02  0.1063E+03
      9.614  0.1308E+02  0.1065E+03
      9.628  0.1715E+02  0.1067E+03
      9.641  0.6858E+01  0.1068E+03
      9.655  0.1723E+01  0.1069E+03
      9.669  0.8494E+01  0.1070E+03
      9.683  0.1082E+02  0.1071E+03
      9.696  0.6651E+01  0.1072E+03
      9.710  0.7243E+01  0.1073E+03
      9.724  0.1545E+02  0.1075E+03
      9.737  0.9610E+01  0.1077E+03
      9.751  0.2955E+01  0.1077E+03
      9.765  0.3292E+01  0.1077E+03
      9.779  0.6662E+01  0.1078E+03
      9.792  0.9677E+01  0.1080E+03
      9.806  0.7515E+01  0.1081E+03
      9.820  0.9375E+01  0.1082E+03
      9.834  0.1047E+02  0.1083E+03
      9.847  0.8096E+01  0.1085E+03
      9.861  0.3740E+01  0.1085E+03
      9.875  0.1212E+02  0.1087E+03
      9.889  0.1737E+02  0.1089E+03
      9.902  0.1093E+02  0.1091E+03
      9.916  0.5201E+01  0.1091E+03
      9.930  0.1158E+02  0.1093E+03
      9.944  0.1747E+02  0.1095E+03
      9.957  0.7159E+01  0.1096E+03
      9.971  0.5438E+01  0.1097E+03
      9.985  0.6511E+01  0.1098E+03
      9.999  0.6824E+01  0.1099E+03
     10.012  0.8722E+01  0.1100E+03
     10.026  0.8525E+01  0.1101E+03
     10.040  0.5763E+01  0.1102E+03
     10.054  0.7535E+00  0.1102E+03
     10.067  0.1712E+01  0.1102E+03
     10.081  0.1019E+02  0.1104E+03
     10.095  0.1444E+02  0.1106E+03
     10.109  0.9891E+01  0.1107E+03
     10.122  0.5640E+01  0.1108E+03
     10.136  0.2896E+01  0.1108E+03
     10.150  0.3819E+01  0.1109E+03
     10.164  0.6013E+01  0.1110E+03
     10.177  0.1136E+02  0.1111E+03
     10.191  0.1257E+02  0.1113E+03
     10.205  0.4963E+01  0.1114E+03
     10.219  0.9441E+01  0.1115E+03
     10.232  0.1793E+02  0.1117E+03
     10.246  0.8955E+01  0.1119E+03
     10.260  0.7582E+01  0.1120E+03
     10.274  0.1144E+02  0.1121E+03
     10.287  0.6293E+01  0.1122E+03
     10.301  0.6316E+01  0.1123E+03
     10.315  0.7503E+01  0.1124E+03
     10.329  0.1349E+02  0.1126E+03
     10.342  0.7755E+01  0.1127E+03
     10.356  0.1440E+01  0.1127E+03
     10.370  0.7285E+01  0.1128E+03
     10.384  0.9633E+01  0.1130E+03
     10.397  0.3916E+01  0.1130E+03
     10.411  0.8987E+01  0.1131E+03
     10.425  0.1833E+02  0.1134E+03
     10.439  0.1345E+02  0.1136E+03
     10.452  0.1319E+02  0.1137E+03
     10.466  0.1147E+02  0.1139E+03
     10.480  0.6423E+01  0.1140E+03
     10.494  0.4587E+01  0.1141E+03
     10.507  0.5327E+01  0.1141E+03
     10.521  0.1246E+02  0.1143E+03
     10.535  0.1234E+02  0.1145E+03
     10.549  0.4798E+01  0.1145E+03
     10.562  0.1307E+01  0.1146E+03
     10.576  0.9217E+01  0.1147E+03
     10.590  0.2102E+02  0.1150E+03
     10.604  0.1427E+02  0.1152E+03
     10.617  0.3966E+01  0.1152E+03
     10.631  0.7932E+01  0.1153E+03
     10.645  0.1608E+02  0.1156E+03
     10.659  0.1023E+02  0.1157E+03
     10.672  0.4411E+01  0.1158E+03
     10.686  0.4003E+01  0.1158E+03
     10.700  0.6628E+01  0.1159E+03
     10.713  0.9270E+01  0.1160E+03
     10.727  0.1139E+02  0.1162E+03
     10.741  0.1131E+02  0.1163E+03
     10.755  0.1071E+02  0.1165E+03
     10.768  0.1011E+02  0.1166E+03
     10.782  0.9125E+01  0.1167E+03
     10.796  0.4301E+01  0.1168E+03
     10.810  0.4354E+01  0.1169E+03
     10.823  0.3536E+01  0.1169E+03
     10.837  0.5018E+01  0.1170E+03
     10.851  0.6247E+01  0.1171E+03
     10.865  0.7912E+01  0.1172E+03
     10.878  0.5526E+01  0.1173E+03
     10.892  0.9874E+01  0.1174E+03
     10.906  0.8096E+01  0.1175E+03
     10.920  0.9115E+01  0.1176E+03
     10.933  0.4693E+01  0.1177E+03
     10.947  0.4265E+01  0.1178E+03
     10.961  0.6129E+01  0.1178E+03
     10.975  0.8903E+01  0.1180E+03
     10.988  0.7351E+01  0.1181E+03
     11.002  0.3826E+01  0.1181E+03
     11.016  0.3598E+01  0.1182E+03
     11.030  0.1849E+01  0.1182E+03
     11.043  0.1306E+02  0.1184E+03
     11.057  0.9226E+01  0.1185E+03
     11.071  0.2245E+01  0.1185E+03
     11.085  0.4224E+01  0.1186E+03
     11.098  0.6673E+01  0.1187E+03
     11.112  0.7456E+01  0.1188E+03
     11.126  0.1100E+02  0.1189E+03
     11.140  0.1885E+02  0.1192E+03
     11.153  0.1667E+02  0.1194E+03
     11.167  0.1155E+02  0.1196E+03
     11.181  0.4406E+01  0.1196E+03
     11.195  0.5425E+01  0.1197E+03
     11.208  0.1729E+02  0.1199E+03
     11.222  0.1892E+02  0.1202E+03
     11.236  0.6782E+01  0.1203E+03
     11.250  0.7176E+01  0.1204E+03
     11.263  0.1522E+02  0.1206E+03
     11.277  0.1217E+02  0.1208E+03
     11.291  0.4679E+01  0.1208E+03
     11.305  0.8438E+01  0.1210E+03
     11.318  0.5863E+01  0.1210E+03
     11.332  0.7007E+01  0.1211E+03
     11.346  0.1047E+02  0.1213E+03
     11.360  0.6639E+01  0.1214E+03
     11.373  0.2321E+01  0.1214E+03
     11.387  0.3297E+01  0.1214E+03
     11.401  0.6100E+01  0.1215E+03
     11.415  0.6541E+01  0.1216E+03
     11.428  0.1121E+02  0.1218E+03
     11.442  0.9645E+01  0.1219E+03
     11.456  0.5265E+01  0.1220E+03
     11.470  0.2619E+01  0.1220E+03
     11.483  0.2304E+01  0.1220E+03
     11.497  0.6095E+01  0.1221E+03
     11.511  0.1290E+02  0.1223E+03
     11.525  0.7995E+01  0.1224E+03
     11.538  0.9610E+01  0.1225E+03
     11.552  0.8106E+01  0.1227E+03
     11.566  0.5051E+01  0.1227E+03
     11.580  0.3172E+01  0.1228E+03
     11.593  0.5992E+01  0.1229E+03
     11.607  0.8039E+01  0.1230E+03
     11.621  0.1009E+02  0.1231E+03
     11.634  0.3281E+01  0.1231E+03
     11.648  0.4843E+01  0.1232E+03
     11.662  0.7805E+01  0.1233E+03
     11.676  0.3093E+01  0.1234E+03
     11.689  0.6013E+01  0.1234E+03
     11.703  0.5604E+01  0.1235E+03
     11.717  0.5680E+01  0.1236E+03
     11.731  0.1072E+01  0.1236E+03
     11.744  0.3755E+01  0.1237E+03
     11.758  0.2574E+01  0.1237E+03
     11.772  0.9643E+01  0.1238E+03
     11.786  0.1189E+02  0.1240E+03
     11.799  0.6604E+01  0.1241E+03
     11.813  0.1665E+02  0.1243E+03
     11.827  0.1388E+02  0.1245E+03
     11.841  0.1200E+02  0.1247E+03
     11.854  0.1071E+02  0.1248E+03
     11.868  0.9188E+01  0.1250E+03
     11.882  0.1771E+02  0.1252E+03
     11.896  0.1154E+02  0.1254E+03
     11.909  0.2395E+01  0.1254E+03
     11.923  0.9493E+01  0.1255E+03
     11.937  0.1326E+02  0.1257E+03
     11.951  0.1017E+02  0.1258E+03
     11.964  0.1147E+02  0.1260E+03
     11.978  0.8631E+01  0.1261E+03
     11.992  0.5624E+01  0.1262E+03
     12.006  0.6633E+00  0.1262E+03
     12.019  0.2190E+01  0.1262E+03
     12.033  0.1137E+02  0.1264E+03
     12.047  0.1178E+02  0.1265E+03
     12.061  0.1097E+02  0.1267E+03
     12.074  0.1371E+02  0.1269E+03
     12.088  0.1063E+02  0.1270E+03
     12.102  0.4522E+01  0.1271E+03
     12.116  0.3030E+01  0.1271E+03
     12.129  0.5911E+01  0.1272E+03
     12.143  0.6125E+01  0.1273E+03
     12.157  0.6119E+01  0.1274E+03
     12.171  0.1233E+02  0.1276E+03
     12.184  0.1494E+02  0.1278E+03
     12.198  0.9153E+01  0.1279E+03
     12.212  0.4847E+01  0.1280E+03
     12.226  0.8112E+01  0.1281E+03
     12.239  0.5720E+01  0.1281E+03
     12.253  0.8932E+01  0.1283E+03
     12.267  0.1068E+02  0.1284E+03
     12.281  0.1085E+02  0.1286E+03
     12.294  0.1392E+02  0.1288E+03
     12.308  0.1074E+02  0.1289E+03
     12.322  0.5371E+01  0.1290E+03
     12.336  0.2716E+01  0.1290E+03
     12.349  0.5458E+01  0.1291E+03
     12.363  0.2595E+01  0.1291E+03
     12.377  0.1923E+01  0.1292E+03
     12.391  0.4565E+01  0.1292E+03
     12.404  0.6697E+01  0.1293E+03
     12.418  0.7727E+01  0.1294E+03
     12.432  0.1444E+02  0.1296E+03
     12.446  0.1464E+02  0.1298E+03
     12.459  0.2944E+01  0.1299E+03
     12.473  0.4488E+00  0.1299E+03
     12.487  0.4974E+01  0.1299E+03
     12.501  0.1014E+02  0.1301E+03
     12.514  0.1771E+02  0.1303E+03
     12.528  0.1627E+02  0.1305E+03
     12.542  0.5524E+01  0.1306E+03
     12.555  0.3450E+01  0.1307E+03
     12.569  0.2641E+01  0.1307E+03
     12.583  0.2256E+01  0.1307E+03
     12.597  0.6173E+01  0.1308E+03
     12.610  0.1119E+02  0.1310E+03
     12.624  0.1396E+02  0.1312E+03
     12.638  0.1832E+02  0.1314E+03
     12.652  0.1081E+02  0.1316E+03
     12.665  0.9554E+01  0.1317E+03
     12.679  0.9820E+01  0.1318E+03
     12.693  0.1027E+02  0.1320E+03
     12.707  0.1735E+02  0.1322E+03
     12.720  0.1189E+02  0.1324E+03
     12.734  0.5299E+01  0.1324E+03
     12.748  0.1162E+02  0.1326E+03
     12.762  0.1504E+02  0.1328E+03
     12.775  0.1103E+02  0.1330E+03
     12.789  0.1457E+02  0.1332E+03
     12.803  0.1651E+02  0.1334E+03
     12.817  0.8719E+01  0.1335E+03
     12.830  0.5194E+01  0.1336E+03
     12.844  0.1053E+02  0.1337E+03
     12.858  0.7248E+01  0.1338E+03
     12.872  0.1421E+02  0.1340E+03
     12.885  0.1638E+02  0.1342E+03
     12.899  0.6177E+01  0.1343E+03
     12.913  0.2947E+01  0.1344E+03
     12.927  0.8111E+01  0.1345E+03
     12.940  0.1318E+02  0.1347E+03
     12.954  0.5234E+01  0.1347E+03
     12.968  0.3001E+00  0.1347E+03
     12.982  0.1148E+00  0.1347E+03
     12.995  0.4047E+01  0.1348E+03
     13.009  0.1101E+02  0.1349E+03
     13.023  0.1534E+02  0.1352E+03
     13.037  0.1800E+02  0.1354E+03
     13.050  0.2037E+02  0.1357E+03
     13.064  0.1041E+02  0.1358E+03
     13.078  0.7217E+01  0.1359E+03
     13.092  0.1261E+02  0.1361E+03
     13.105  0.1498E+02  0.1363E+03
     13.119  0.7013E+01  0.1364E+03
     13.133  0.7691E+01  0.1365E+03
     13.147  0.1073E+02  0.1367E+03
     13.160  0.1140E+02  0.1368E+03
     13.174  0.7074E+01  0.1369E+03
     13.188  0.5582E+01  0.1370E+03
     13.202  0.6114E+01  0.1371E+03
     13.215  0.6264E+01  0.1372E+03
     13.229  0.5419E+01  0.1372E+03
     13.243  0.8384E+01  0.1373E+03
     13.257  0.1105E+02  0.1375E+03
     13.270  0.1394E+02  0.1377E+03
     13.284  0.1333E+02  0.1379E+03
     13.298  0.1257E+02  0.1380E+03
     13.312  0.1282E+02  0.1382E+03
     13.325  0.1084E+02  0.1384E+03
     13.339  0.7695E+01  0.1385E+03
     13.353  0.2968E+01  0.1385E+03
     13.367  0.4220E+01  0.1386E+03
     13.380  0.7607E+01  0.1387E+03
     13.394  0.1836E+02  0.1389E+03
     13.408  0.1582E+02  0.1391E+03
     13.422  0.7054E+01  0.1392E+03
     13.435  0.1028E+02  0.1394E+03
     13.449  0.1358E+02  0.1396E+03
     13.463  0.1555E+02  0.1398E+03
     13.476  0.1332E+02  0.1400E+03
     13.490  0.1032E+02  0.1401E+03
     13.504  0.4183E+01  0.1402E+03
     13.518  0.2262E+01  0.1402E+03
     13.531  0.4470E+01  0.1403E+03
     13.545  0.6238E+01  0.1403E+03
     13.559  0.5549E+01  0.1404E+03
     13.573  0.1453E+02  0.1406E+03
     13.586  0.1998E+02  0.1409E+03
     13.600  0.2180E+02  0.1412E+03
     13.614  0.1409E+02  0.1414E+03
     13.628  0.1260E+02  0.1416E+03
     13.641  0.1288E+02  0.1417E+03
     13.655  0.1328E+02  0.1419E+03
     13.669  0.1029E+02  0.1421E+03
     13.683  0.2152E+01  0.1421E+03
     13.696  0.6694E+01  0.1422E+03
     13.710  0.7382E+01  0.1423E+03
     13.724  0.5085E+01  0.1424E+03
     13.738  0.8275E+01  0.1425E+03
     13.751  0.6243E+01  0.1426E+03
     13.765  0.1095E+02  0.1427E+03
     13.779  0.1298E+02  0.1429E+03
     13.793  0.1242E+02  0.1431E+03
     13.806  0.1173E+02  0.1432E+03
     13.820  0.8726E+01  0.1433E+03
     13.834  0.6056E+01  0.1434E+03
     13.848  0.7190E+01  0.1435E+03
     13.861  0.1314E+02  0.1437E+03
     13.875  0.6162E+01  0.1438E+03
     13.889  0.2147E+01  0.1438E+03
     13.903  0.2720E+01  0.1439E+03
     13.916  0.1378E+02  0.1440E+03
     13.930  0.1794E+02  0.1443E+03
     13.944  0.1683E+02  0.1445E+03
     13.958  0.1470E+02  0.1447E+03
     13.971  0.9648E+01  0.1449E+03
     13.985  0.4485E+01  0.1449E+03
     13.999  0.5781E+01  0.1450E+03
     14.013  0.5102E+01  0.1451E+03
     14.026  0.5356E+01  0.1451E+03
     14.040  0.1439E+02  0.1453E+03
     14.054  0.1841E+02  0.1456E+03
     14.068  0.1440E+02  0.1458E+03
     14.081  0.1504E+02  0.1460E+03
     14.095  0.9892E+01  0.1461E+03
     14.109  0.6544E+01  0.1462E+03
     14.123  0.5002E+01  0.1463E+03
     14.136  0.1104E+02  0.1464E+03
     14.150  0.1271E+02  0.1466E+03
     14.164  0.7713E+01  0.1467E+03
     14.178  0.1110E+02  0.1469E+03
     14.191  0.1190E+02  0.1470E+03
     14.205  0.1819E+02  0.1473E+03
     14.219  0.1283E+02  0.1475E+03
     14.233  0.9977E+01  0.1476E+03
     14.246  0.1511E+02  0.1478E+03
     14.260  0.2046E+02  0.1481E+03
     14.274  0.1579E+02  0.1483E+03
     14.288  0.1155E+02  0.1485E+03
     14.301  0.9436E+01  0.1486E+03
     14.315  0.2198E+01  0.1486E+03
     14.329  0.5233E+01  0.1487E+03
     14.343  0.6730E+01  0.1488E+03
     14.356  0.1211E+02  0.1490E+03
     14.370  0.1976E+02  0.1492E+03
     14.384  0.2090E+02  0.1495E+03
     14.398  0.2457E+02  0.1499E+03
     14.411  0.2146E+02  0.1501E+03
     14.425  0.1519E+02  0.1504E+03
     14.439  0.5404E+01  0.1504E+03
     14.452  0.1699E+02  0.1507E+03
     14.466  0.1813E+02  0.1509E+03
     14.480  0.7226E+01  0.1510E+03
     14.494  0.8317E+01  0.1511E+03
     14.507  0.1367E+02  0.1513E+03
     14.521  0.1967E+02  0.1516E+03
     14.535  0.8901E+01  0.1517E+03
     14.549  0.2939E+01  0.1517E+03
     14.562  0.6298E+01  0.1518E+03
     14.576  0.1448E+02  0.1520E+03
     14.590  0.1257E+02  0.1522E+03
     14.604  0.7561E+01  0.1523E+03
     14.617  0.1530E+02  0.1525E+03
     14.631  0.1299E+02  0.1527E+03
     14.645  0.1944E+02  0.1530E+03
     14.659  0.1125E+02  0.1531E+03
     14.672  0.3694E+01  0.1532E+03
     14.686  0.4506E+01  0.1532E+03
     14.700  0.8188E+01  0.1533E+03
     14.714  0.8418E+01  0.1535E+03
     14.727  0.1696E+02  0.1537E+03
     14.741  0.7302E+01  0.1538E+03
     14.755  0.4332E+01  0.1539E+03
     14.769  0.1431E+02  0.1541E+03
     14.782  0.1127E+02  0.1542E+03
     14.796  0.8383E+01  0.1543E+03
     14.810  0.9019E+01  0.1544E+03
     14.824  0.8616E+01  0.1546E+03
     14.837  0.3788E+01  0.1546E+03
     14.851  0.1909E+01  0.1546E+03
     14.865  0.3254E+01  0.1547E+03
     14.879  0.1063E+02  0.1548E+03
     14.892  0.1173E+02  0.1550E+03
     14.906  0.1287E+02  0.1552E+03
     14.920  0.1212E+02  0.1553E+03
     14.934  0.5943E+01  0.1554E+03
     14.947  0.1563E+02  0.1556E+03
     14.961  0.1587E+02  0.1559E+03
     14.975  0.4356E+01  0.1559E+03
     14.989  0.1548E+01  0.1559E+03
     15.002  0.3586E+01  0.1560E+03
     15.016  0.8063E+01  0.1561E+03
     15.030  0.8454E+01  0.1562E+03
     15.044  0.7645E+01  0.1563E+03
     15.057  0.9997E+01  0.1565E+03
     15.071  0.5132E+01  0.1565E+03
     15.085  0.7051E+01  0.1566E+03
     15.099  0.2364E+02  0.1569E+03
     15.112  0.1359E+02  0.1571E+03
     15.126  0.5662E+01  0.1572E+03
     15.140  0.9777E+01  0.1573E+03
     15.154  0.1509E+02  0.1576E+03
     15.167  0.9155E+01  0.1577E+03
     15.181  0.7497E+01  0.1578E+03
     15.195  0.7835E+01  0.1579E+03
     15.209  0.1354E+02  0.1581E+03
     15.222  0.9709E+01  0.1582E+03
     15.236  0.2393E+01  0.1582E+03
     15.250  0.1893E+01  0.1583E+03
     15.264  0.1102E+02  0.1584E+03
     15.277  0.8864E+01  0.1585E+03
     15.291  0.1147E+02  0.1587E+03
     15.305  0.1798E+02  0.1589E+03
     15.319  0.9955E+01  0.1591E+03
     15.332  0.4855E+01  0.1591E+03
     15.346  0.1459E+02  0.1593E+03
     15.360  0.7143E+01  0.1594E+03
     15.373  0.2794E+01  0.1595E+03
     15.387  0.2905E+01  0.1595E+03
     15.401  0.2690E+01  0.1596E+03
     15.415  0.5664E+01  0.1596E+03
     15.428  0.6121E+01  0.1597E+03
     15.442  0.2261E+01  0.1598E+03
     15.456  0.4095E+01  0.1598E+03
     15.470  0.4328E+01  0.1599E+03
     15.483  0.7726E+01  0.1600E+03
     15.497  0.6787E+01  0.1601E+03
     15.511  0.1218E+02  0.1602E+03
     15.525  0.5933E+01  0.1603E+03
     15.538  0.7424E+01  0.1604E+03
     15.552  0.1440E+02  0.1606E+03
     15.566  0.1106E+02  0.1608E+03
     15.580  0.1708E+02  0.1610E+03
     15.593  0.4818E+01  0.1611E+03
     15.607  0.2117E+01  0.1611E+03
     15.621  0.1363E+01  0.1611E+03
     15.635  0.4477E+01  0.1612E+03
     15.648  0.5178E+01  0.1613E+03
     15.662  0.3129E+01  0.1613E+03
     15.676  0.6822E+01  0.1614E+03
     15.690  0.1162E+02  0.1616E+03
     15.703  0.1930E+02  0.1618E+03
     15.717  0.1580E+02  0.1620E+03
     15.731  0.9398E+01  0.1622E+03
     15.745  0.8596E+01  0.1623E+03
     15.758  0.1059E+02  0.1624E+03
     15.772  0.7637E+01  0.1625E+03
     15.786  0.1175E+02  0.1627E+03
     15.800  0.1182E+02  0.1629E+03
     15.813  0.8464E+01  0.1630E+03
     15.827  0.6045E+01  0.1631E+03
     15.841  0.1846E+02  0.1633E+03
     15.855  0.1356E+02  0.1635E+03
     15.868  0.5341E+01  0.1636E+03
     15.882  0.1582E+02  0.1638E+03
     15.896  0.1682E+02  0.1640E+03
     15.910  0.6301E+01  0.1641E+03
     15.923  0.3442E+01  0.1642E+03
     15.937  0.5889E+01  0.1642E+03
     15.951  0.7419E+01  0.1643E+03
     15.965  0.1001E+02  0.1645E+03
     15.978  0.1031E+02  0.1646E+03
     15.992  0.1484E+02  0.1648E+03
     16.006  0.1527E+02  0.1650E+03
     16.020  0.9967E+01  0.1652E+03
     16.033  0.5338E+01  0.1652E+03
     16.047  0.8647E+00  0.1652E+03
     16.061  0.2175E+01  0.1653E+03
     16.075  0.4032E+01  0.1653E+03
     16.088  0.7145E+01  0.1654E+03
     16.102  0.7626E+01  0.1655E+03
     16.116  0.6296E+01  0.1656E+03
     16.130  0.1275E+02  0.1658E+03
     16.143  0.8593E+01  0.1659E+03
     16.157  0.6484E+01  0.1660E+03
     16.171  0.1296E+02  0.1662E+03
     16.185  0.2139E+02  0.1665E+03
     16.198  0.1406E+02  0.1667E+03
     16.212  0.6314E+01  0.1668E+03
     16.226  0.5733E+01  0.1668E+03
     16.240  0.9293E+01  0.1670E+03
     16.253  0.2855E+01  0.1670E+03
     16.267  0.6420E+01  0.1671E+03
     16.281  0.9760E+01  0.1672E+03
     16.294  0.1414E+02  0.1674E+03
     16.308  0.9174E+01  0.1675E+03
     16.322  0.1053E+02  0.1677E+03
     16.336  0.1060E+02  0.1678E+03
     16.349  0.8230E+01  0.1680E+03
     16.363  0.9340E+01  0.1681E+03
     16.377  0.9874E+01  0.1682E+03
     16.391  0.7644E+01  0.1683E+03
     16.404  0.3255E+01  0.1684E+03
     16.418  0.2708E+01  0.1684E+03
     16.432  0.7385E+01  0.1685E+03
     16.446  0.7086E+01  0.1686E+03
     16.459  0.1092E+02  0.1688E+03
     16.473  0.7950E+01  0.1689E+03
     16.487  0.3806E+01  0.1689E+03
     16.501  0.9861E+01  0.1690E+03
     16.514  0.1186E+02  0.1692E+03
     16.528  0.6200E+01  0.1693E+03
     16.542  0.9144E+01  0.1694E+03
     16.556  0.2042E+02  0.1697E+03
     16.569  0.1424E+02  0.1699E+03
     16.583  0.8185E+01  0.1700E+03
     16.597  0.1122E+02  0.1702E+03
     16.611  0.9560E+01  0.1703E+03
     16.624  0.1172E+02  0.1705E+03
     16.638  0.1272E+02  0.1706E+03
     16.652  0.7826E+01  0.1707E+03
     16.666  0.1326E+02  0.1709E+03
     16.679  0.1490E+02  0.1711E+03
     16.693  0.6446E+01  0.1712E+03
     16.707  0.1017E+02  0.1714E+03
     16.721  0.1098E+02  0.1715E+03
     16.734  0.5343E+01  0.1716E+03
     16.748  0.1205E+02  0.1717E+03
     16.762  0.2160E+02  0.1720E+03
     16.776  0.1342E+02  0.1722E+03
     16.789  0.7077E+01  0.1723E+03
     16.803  0.8916E+01  0.1724E+03
     16.817  0.7203E+01  0.1725E+03
     16.831  0.7483E+01  0.1726E+03
     16.844  0.1342E+02  0.1728E+03
     16.858  0.1460E+02  0.1730E+03
     16.872  0.1478E+02  0.1732E+03
     16.886  0.5810E+01  0.1733E+03
     16.899  0.5823E+01  0.1734E+03
     16.913  0.8151E+01  0.1735E+03
     16.927  0.8226E+01  0.1736E+03
     16.941  0.5613E+01  0.1737E+03
     16.954  0.6082E+01  0.1738E+03
     16.968  0.6542E+01  0.1739E+03
     16.982  0.3477E+01  0.1739E+03
     16.996  0.1022E+02  0.1741E+03
     17.009  0.1323E+02  0.1742E+03
     17.023  0.1301E+02  0.1744E+03
     17.037  0.1548E+02  0.1746E+03
     17.051  0.9241E+01  0.1748E+03
     17.064  0.1214E+02  0.1749E+03
     17.078  0.8805E+01  0.1751E+03
     17.092  0.6550E+01  0.1751E+03
     17.106  0.4820E+01  0.1752E+03
     17.119  0.8085E+01  0.1753E+03
     17.133  0.8198E+01  0.1754E+03
     17.147  0.1585E+02  0.1756E+03
     17.161  0.1123E+02  0.1758E+03
     17.174  0.1022E+02  0.1759E+03
     17.188  0.8780E+01  0.1761E+03
     17.202  0.1031E+02  0.1762E+03
     17.216  0.1385E+02  0.1764E+03
     17.229  0.1005E+02  0.1765E+03
     17.243  0.1599E+02  0.1768E+03
     17.257  0.1718E+02  0.1770E+03
     17.270  0.1387E+02  0.1772E+03
     17.284  0.1249E+02  0.1774E+03
     17.298  0.4229E+01  0.1774E+03
     17.312  0.6126E+01  0.1775E+03
     17.325  0.4309E+01  0.1776E+03
     17.339  0.6979E+01  0.1776E+03
     17.353  0.7618E+01  0.1778E+03
     17.367  0.8017E+01  0.1779E+03
     17.380  0.1109E+02  0.1780E+03
     17.394  0.8707E+01  0.1781E+03
     17.408  0.9607E+01  0.1783E+03
     17.422  0.5509E+01  0.1783E+03
     17.435  0.9000E+01  0.1785E+03
     17.449  0.1062E+02  0.1786E+03
     17.463  0.9818E+01  0.1787E+03
     17.477  0.8617E+01  0.1789E+03
     17.490  0.9654E+01  0.1790E+03
     17.504  0.1313E+02  0.1792E+03
     17.518  0.1248E+02  0.1794E+03
     17.532  0.1613E+02  0.1796E+03
     17.545  0.1024E+02  0.1797E+03
     17.559  0.7731E+01  0.1798E+03
     17.573  0.2813E+01  0.1799E+03
     17.587  0.6991E+01  0.1800E+03
     17.600  0.1283E+02  0.1801E+03
     17.614  0.1036E+02  0.1803E+03
     17.628  0.8147E+01  0.1804E+03
     17.642  0.6299E+01  0.1805E+03
     17.655  0.6968E+01  0.1806E+03
     17.669  0.1620E+02  0.1808E+03
     17.683  0.1163E+02  0.1810E+03
     17.697  0.2869E+01  0.1810E+03
     17.710  0.8721E+01  0.1811E+03
     17.724  0.1203E+02  0.1813E+03
     17.738  0.8483E+01  0.1814E+03
     17.752  0.3907E+01  0.1814E+03
     17.765  0.1215E+02  0.1816E+03
     17.779  0.2350E+02  0.1819E+03
     17.793  0.1560E+02  0.1822E+03
     17.807  0.4969E+01  0.1822E+03
     17.820  0.1199E+02  0.1824E+03
     17.834  0.6693E+01  0.1825E+03
     17.848  0.1066E+02  0.1826E+03
     17.862  0.1242E+02  0.1828E+03
     17.875  0.9582E+01  0.1829E+03
     17.889  0.1166E+02  0.1831E+03
     17.903  0.1744E+02  0.1833E+03
     17.917  0.1175E+02  0.1835E+03
     17.930  0.8140E+01  0.1836E+03
     17.944  0.6227E+01  0.1837E+03
     17.958  0.1156E+02  0.1838E+03
     17.972  0.1135E+02  0.1840E+03
     17.985  0.5978E+01  0.1841E+03
     17.999  0.4137E+01  0.1841E+03
     18.013  0.8294E+01  0.1843E+03
     18.027  0.9243E+01  0.1844E+03
     18.040  0.8534E+01  0.1845E+03
     18.054  0.6025E+01  0.1846E+03
     18.068  0.8579E+01  0.1847E+03
     18.082  0.7842E+01  0.1848E+03
     18.095  0.6801E+01  0.1849E+03
     18.109  0.9243E+01  0.1850E+03
     18.123  0.1280E+02  0.1852E+03
     18.137  0.1300E+02  0.1854E+03
     18.150  0.1016E+02  0.1855E+03
     18.164  0.9569E+01  0.1857E+03
     18.178  0.1057E+02  0.1858E+03
     18.191  0.9631E+01  0.1859E+03
     18.205  0.1151E+02  0.1861E+03
     18.219  0.6810E+01  0.1862E+03
     18.233  0.7794E+01  0.1863E+03
     18.246  0.1147E+02  0.1864E+03
     18.260  0.6508E+01  0.1865E+03
     18.274  0.9694E+01  0.1867E+03
     18.288  0.9591E+01  0.1868E+03
     18.301  0.1329E+02  0.1870E+03
     18.315  0.1208E+02  0.1871E+03
     18.329  0.1039E+02  0.1873E+03
     18.343  0.5966E+01  0.1874E+03
     18.356  0.8544E+01  0.1875E+03
     18.370  0.3211E+01  0.1875E+03
     18.384  0.5456E+01  0.1876E+03
     18.398  0.2194E+02  0.1879E+03
     18.411  0.1398E+02  0.1881E+03
     18.425  0.1520E+02  0.1883E+03
     18.439  0.4469E+01  0.1884E+03
     18.453  0.8946E+01  0.1885E+03
     18.466  0.2051E+02  0.1888E+03
     18.480  0.1284E+02  0.1890E+03
     18.494  0.2553E+01  0.1890E+03
     18.508  0.2090E+01  0.1890E+03
     18.521  0.5342E+01  0.1891E+03
     18.535  0.1590E+02  0.1893E+03
     18.549  0.2044E+02  0.1896E+03
     18.563  0.1399E+02  0.1898E+03
     18.576  0.6887E+01  0.1899E+03
     18.590  0.6690E+01  0.1900E+03
     18.604  0.7141E+01  0.1901E+03
     18.618  0.1749E+02  0.1903E+03
     18.631  0.1494E+02  0.1905E+03
     18.645  0.1075E+02  0.1907E+03
     18.659  0.1386E+02  0.1909E+03
     18.673  0.1294E+02  0.1910E+03
     18.686  0.7636E+01  0.1911E+03
     18.700  0.3901E+01  0.1912E+03
     18.714  0.1386E+02  0.1914E+03
     18.728  0.1207E+02  0.1915E+03
     18.741  0.7533E+01  0.1917E+03
     18.755  0.9640E+01  0.1918E+03
     18.769  0.1694E+02  0.1920E+03
     18.783  0.1604E+02  0.1922E+03
     18.796  0.6424E+01  0.1923E+03
     18.810  0.1098E+02  0.1925E+03
     18.824  0.8827E+01  0.1926E+03
     18.838  0.5332E+01  0.1927E+03
     18.851  0.1000E+02  0.1928E+03
     18.865  0.4008E+01  0.1929E+03
     18.879  0.3829E+01  0.1929E+03
     18.893  0.5279E+01  0.1930E+03
     18.906  0.1465E+02  0.1932E+03
     18.920  0.1734E+02  0.1934E+03
     18.934  0.1261E+02  0.1936E+03
     18.948  0.1087E+02  0.1938E+03
     18.961  0.1515E+02  0.1940E+03
     18.975  0.9225E+01  0.1941E+03
     18.989  0.6415E+01  0.1942E+03
     19.003  0.8352E+01  0.1943E+03
     19.016  0.1468E+02  0.1945E+03
     19.030  0.2253E+02  0.1948E+03
     19.044  0.1532E+02  0.1950E+03
     19.058  0.1577E+02  0.1952E+03
     19.071  0.1927E+02  0.1955E+03
     19.085  0.1808E+02  0.1957E+03
     19.099  0.1110E+02  0.1959E+03
     19.112  0.9250E+01  0.1960E+03
     19.126  0.1200E+02  0.1962E+03
     19.140  0.1851E+02  0.1964E+03
     19.154  0.1072E+02  0.1966E+03
     19.167  0.3078E+01  0.1966E+03
     19.181  0.1200E+02  0.1968E+03
     19.195  0.8398E+01  0.1969E+03
     19.209  0.1089E+02  0.1971E+03
     19.222  0.1121E+02  0.1972E+03
     19.236  0.1184E+02  0.1974E+03
     19.250  0.1335E+02  0.1976E+03
     19.264  0.1498E+02  0.1978E+03
     19.277  0.6419E+01  0.1979E+03
     19.291  0.4670E+01  0.1979E+03
     19.305  0.5640E+01  0.1980E+03
     19.319  0.1854E+02  0.1983E+03
     19.332  0.2233E+02  0.1986E+03
     19.346  0.9134E+01  0.1987E+03
     19.360  0.4719E+01  0.1987E+03
     19.374  0.8446E+01  0.1989E+03
     19.387  0.1349E+02  0.1990E+03
     19.401  0.1082E+02  0.1992E+03
     19.415  0.6297E+01  0.1993E+03
     19.429  0.4105E+01  0.1993E+03
     19.442  0.1408E+02  0.1995E+03
     19.456  0.2432E+02  0.1999E+03
     19.470  0.1614E+02  0.2001E+03
     19.484  0.1520E+02  0.2003E+03
     19.497  0.1179E+02  0.2005E+03
     19.511  0.6987E+01  0.2006E+03
     19.525  0.7882E+01  0.2007E+03
     19.539  0.2053E+02  0.2009E+03
     19.552  0.2976E+02  0.2014E+03
     19.566  0.1832E+02  0.2016E+03
     19.580  0.1050E+02  0.2018E+03
     19.594  0.8433E+01  0.2019E+03
     19.607  0.7870E+01  0.2020E+03
     19.621  0.9936E+01  0.2021E+03
     19.635  0.1527E+02  0.2023E+03
     19.649  0.1296E+02  0.2025E+03
     19.662  0.1295E+02  0.2027E+03
     19.676  0.8169E+01  0.2028E+03
     19.690  0.5225E+01  0.2029E+03
     19.704  0.4408E+01  0.2029E+03
     19.717  0.1222E+02  0.2031E+03
     19.731  0.2146E+02  0.2034E+03
     19.745  0.1619E+02  0.2036E+03
     19.759  0.7233E+01  0.2037E+03
     19.772  0.9695E+01  0.2038E+03
     19.786  0.1504E+02  0.2041E+03
     19.800  0.1323E+02  0.2042E+03
     19.814  0.1660E+02  0.2045E+03
     19.827  0.1250E+02  0.2046E+03
     19.841  0.7408E+01  0.2047E+03
     19.855  0.7406E+01  0.2048E+03
     19.869  0.3637E+01  0.2049E+03
     19.882  0.6700E+01  0.2050E+03
     19.896  0.5389E+01  0.2051E+03
     19.910  0.4591E+01  0.2051E+03
     19.924  0.1120E+02  0.2053E+03
     19.937  0.8076E+01  0.2054E+03
     19.951  0.1316E+02  0.2056E+03
     19.965  0.2417E+02  0.2059E+03
     19.979  0.1343E+02  0.2061E+03
     19.992  0.1478E+02  0.2063E+03
     20.006  0.1085E+02  0.2064E+03
     20.020  0.8901E+01  0.2066E+03
     20.033  0.3738E+01  0.2066E+03
     20.047  0.6051E+01  0.2067E+03
     20.061  0.1082E+02  0.2068E+03
     20.075  0.6143E+01  0.2069E+03
     20.088  0.4481E+01  0.2070E+03
     20.102  0.7946E+01  0.2071E+03
     20.116  0.1184E+02  0.2073E+03
     20.130  0.1203E+02  0.2074E+03
     20.143  0.3907E+01  0.2075E+03
     20.157  0.4254E+01  0.2075E+03
     20.171  0.8279E+01  0.2076E+03
     20.185  0.7229E+01  0.2077E+03
     20.198  0.1022E+02  0.2079E+03
     20.212  0.1110E+02  0.2080E+03
     20.226  0.8989E+01  0.2082E+03
     20.240  0.7966E+01  0.2083E+03
     20.253  0.1194E+02  0.2084E+03
     20.267  0.1266E+02  0.2086E+03
     20.281  0.1122E+02  0.2088E+03
     20.295  0.7443E+01  0.2089E+03
     20.308  0.1424E+01  0.2089E+03
     20.322  0.1751E+00  0.2089E+03
     20.336  0.3497E+01  0.2089E+03
     20.350  0.1121E+02  0.2091E+03
     20.363  0.2116E+02  0.2094E+03
     20.377  0.1758E+02  0.2096E+03
     20.391  0.7320E+01  0.2097E+03
     20.405  0.2385E+01  0.2098E+03
     20.418  0.2237E+00  0.2098E+03
     20.432  0.3868E+01  0.2098E+03
     20.446  0.1169E+02  0.2100E+03
     20.460  0.1231E+02  0.2101E+03
     20.473  0.1416E+02  0.2103E+03
     20.487  0.1328E+02  0.2105E+03
     20.501  0.4361E+01  0.2106E+03
     20.515  0.7502E+01  0.2107E+03
     20.528  0.8534E+01  0.2108E+03
     20.542  0.8187E+01  0.2109E+03
     20.556  0.8318E+01  0.2110E+03
     20.570  0.4360E+01  0.2111E+03
     20.583  0.9370E+01  0.2112E+03
     20.597  0.1042E+02  0.2114E+03
     20.611  0.1705E+02  0.2116E+03
     20.625  0.8255E+01  0.2117E+03
     20.638  0.2576E+01  0.2117E+03
     20.652  0.1788E+02  0.2120E+03
     20.666  0.1938E+02  0.2123E+03
     20.680  0.1059E+02  0.2124E+03
     20.693  0.1011E+02  0.2125E+03
     20.707  0.9288E+01  0.2127E+03
     20.721  0.7764E+01  0.2128E+03
     20.735  0.6407E+01  0.2129E+03
     20.748  0.4863E+01  0.2129E+03
     20.762  0.6765E+01  0.2130E+03
     20.776  0.7019E+01  0.2131E+03
     20.790  0.7237E+01  0.2132E+03
     20.803  0.1636E+02  0.2134E+03
     20.817  0.1656E+02  0.2137E+03
     20.831  0.1107E+02  0.2138E+03
     20.845  0.6388E+01  0.2139E+03
     20.858  0.2953E+01  0.2139E+03
     20.872  0.5530E+01  0.2140E+03
     20.886  0.4527E+01  0.2141E+03
     20.900  0.1045E+02  0.2142E+03
     20.913  0.8417E+01  0.2143E+03
     20.927  0.5058E+01  0.2144E+03
     20.941  0.3103E+01  0.2145E+03
     20.955  0.6964E+01  0.2146E+03
     20.968  0.6725E+01  0.2146E+03
     20.982  0.4272E+01  0.2147E+03
     20.996  0.4230E+01  0.2148E+03
     21.009  0.1565E+02  0.2150E+03
     21.023  0.2637E+02  0.2153E+03
     21.037  0.9829E+01  0.2155E+03
     21.051  0.5667E+01  0.2156E+03
     21.064  0.2269E+02  0.2159E+03
     21.078  0.1173E+02  0.2160E+03
     21.092  0.3604E+01  0.2161E+03
     21.106  0.7518E+01  0.2162E+03
     21.119  0.1532E+02  0.2164E+03
     21.133  0.1595E+02  0.2166E+03
     21.147  0.8133E+01  0.2167E+03
     21.161  0.1374E+02  0.2169E+03
     21.174  0.1737E+02  0.2172E+03
     21.188  0.1267E+02  0.2173E+03
     21.202  0.1302E+02  0.2175E+03
     21.216  0.5653E+01  0.2176E+03
     21.229  0.4880E+01  0.2176E+03
     21.243  0.4394E+01  0.2177E+03
     21.257  0.1069E+02  0.2179E+03
     21.271  0.2157E+02  0.2182E+03
     21.284  0.8525E+01  0.2183E+03
     21.298  0.3178E+01  0.2183E+03
     21.312  0.7385E+01  0.2184E+03
     21.326  0.1112E+02  0.2186E+03
     21.339  0.7965E+01  0.2187E+03
     21.353  0.1252E+02  0.2188E+03
     21.367  0.2198E+02  0.2192E+03
     21.381  0.1298E+02  0.2193E+03
     21.394  0.4090E+01  0.2194E+03
     21.408  0.5909E+01  0.2195E+03
     21.422  0.1733E+02  0.2197E+03
     21.436  0.1323E+02  0.2199E+03
     21.449  0.1848E+02  0.2201E+03
     21.463  0.1171E+02  0.2203E+03
     21.477  0.7507E+01  0.2204E+03
     21.491  0.8321E+01  0.2205E+03
     21.504  0.5680E+01  0.2206E+03
     21.518  0.7748E+01  0.2207E+03
     21.532  0.1298E+02  0.2209E+03
     21.546  0.1395E+02  0.2211E+03
     21.559  0.1088E+02  0.2212E+03
     21.573  0.6255E+01  0.2213E+03
     21.587  0.9384E+01  0.2214E+03
     21.601  0.5102E+01  0.2215E+03
     21.614  0.1126E+02  0.2217E+03
     21.628  0.1171E+02  0.2218E+03
     21.642  0.1174E+02  0.2220E+03
     21.656  0.1704E+02  0.2222E+03
     21.669  0.1056E+02  0.2224E+03
     21.683  0.1286E+02  0.2225E+03
     21.697  0.1024E+02  0.2227E+03
     21.711  0.6810E+01  0.2228E+03
     21.724  0.8008E+01  0.2229E+03
     21.738  0.8097E+01  0.2230E+03
     21.752  0.6401E+01  0.2231E+03
     21.766  0.7534E+01  0.2232E+03
     21.779  0.7128E+01  0.2233E+03
     21.793  0.8327E+01  0.2234E+03
     21.807  0.1930E+02  0.2237E+03
     21.821  0.1454E+02  0.2239E+03
     21.834  0.8516E+01  0.2240E+03
     21.848  0.1371E+02  0.2242E+03
     21.862  0.9209E+01  0.2243E+03
     21.876  0.9862E+01  0.2244E+03
     21.889  0.1856E+02  0.2247E+03
     21.903  0.9181E+01  0.2248E+03
     21.917  0.5658E+01  0.2249E+03
     21.930  0.8835E+01  0.2250E+03
     21.944  0.1285E+02  0.2252E+03
     21.958  0.1184E+02  0.2254E+03
     21.972  0.1307E+02  0.2255E+03
     21.985  0.1278E+02  0.2257E+03
     21.999  0.7128E+01  0.2258E+03
     22.013  0.9919E+01  0.2259E+03
     22.027  0.3421E+01  0.2260E+03
     22.040  0.1550E+01  0.2260E+03
     22.054  0.1186E+02  0.2262E+03
     22.068  0.1843E+02  0.2264E+03
     22.082  0.1160E+02  0.2266E+03
     22.095  0.1370E+02  0.2268E+03
     22.109  0.1974E+02  0.2270E+03
     22.123  0.1368E+02  0.2272E+03
     22.137  0.1864E+02  0.2275E+03
     22.150  0.1113E+02  0.2276E+03
     22.164  0.3638E+01  0.2277E+03
     22.178  0.3691E+01  0.2277E+03
     22.192  0.9995E+01  0.2279E+03
     22.205  0.1266E+02  0.2281E+03
     22.219  0.7666E+01  0.2282E+03
     22.233  0.5772E+01  0.2282E+03
     22.247  0.1180E+02  0.2284E+03
     22.260  0.1088E+02  0.2286E+03
     22.274  0.7154E+01  0.2287E+03
     22.288  0.1125E+02  0.2288E+03
     22.302  0.8637E+01  0.2289E+03
     22.315  0.8533E+01  0.2290E+03
     22.329  0.5091E+01  0.2291E+03
     22.343  0.1354E+02  0.2293E+03
     22.357  0.1941E+02  0.2296E+03
     22.370  0.1232E+02  0.2297E+03
     22.384  0.1299E+02  0.2299E+03
     22.398  0.7923E+01  0.2300E+03
     22.412  0.5735E+01  0.2301E+03
     22.425  0.2722E+01  0.2301E+03
     22.439  0.9698E+01  0.2303E+03
     22.453  0.1316E+02  0.2305E+03
     22.467  0.1130E+02  0.2306E+03
     22.480  0.1175E+02  0.2308E+03
     22.494  0.1082E+02  0.2309E+03
     22.508  0.7767E+01  0.2310E+03
     22.522  0.4808E+01  0.2311E+03
     22.535  0.1668E+02  0.2313E+03
     22.549  0.1753E+02  0.2316E+03
     22.563  0.1565E+02  0.2318E+03
     22.577  0.1455E+02  0.2320E+03
     22.590  0.1620E+02  0.2322E+03
     22.604  0.5328E+01  0.2323E+03
     22.618  0.4899E+01  0.2323E+03
     22.632  0.1082E+02  0.2325E+03
     22.645  0.1071E+02  0.2326E+03
     22.659  0.4337E+01  0.2327E+03
     22.673  0.4970E+01  0.2328E+03
     22.687  0.5837E+01  0.2328E+03
     22.700  0.1107E+02  0.2330E+03
     22.714  0.5382E+01  0.2331E+03
     22.728  0.4730E+01  0.2331E+03
     22.742  0.6185E+01  0.2332E+03
     22.755  0.3555E+01  0.2333E+03
     22.769  0.1124E+02  0.2334E+03
     22.783  0.1164E+02  0.2336E+03
     22.797  0.7897E+01  0.2337E+03
     22.810  0.7109E+01  0.2338E+03
     22.824  0.8473E+01  0.2339E+03
     22.838  0.1097E+02  0.2341E+03
     22.851  0.1495E+02  0.2343E+03
     22.865  0.7146E+01  0.2344E+03
     22.879  0.6700E+01  0.2345E+03
     22.893  0.6711E+01  0.2345E+03
     22.906  0.8432E+01  0.2347E+03
     22.920  0.5032E+01  0.2347E+03
     22.934  0.7686E+01  0.2348E+03
     22.948  0.6769E+01  0.2349E+03
     22.961  0.4003E+01  0.2350E+03
     22.975  0.9875E+01  0.2351E+03
     22.989  0.9058E+01  0.2352E+03
     23.003  0.8680E+01  0.2354E+03
     23.016  0.7523E+01  0.2355E+03
     23.030  0.1614E+02  0.2357E+03
     23.044  0.1476E+02  0.2359E+03
     23.058  0.1372E+02  0.2361E+03
     23.071  0.2219E+01  0.2361E+03
     23.085  0.4637E+01  0.2362E+03
     23.099  0.1673E+02  0.2364E+03
     23.113  0.1013E+02  0.2365E+03
     23.126  0.3496E+01  0.2366E+03
     23.140  0.6387E+01  0.2367E+03
     23.154  0.4825E+01  0.2367E+03
     23.168  0.1020E+02  0.2369E+03
     23.181  0.1823E+02  0.2371E+03
     23.195  0.1299E+02  0.2373E+03
     23.209  0.1330E+02  0.2375E+03
     23.223  0.1629E+02  0.2377E+03
     23.236  0.6914E+01  0.2378E+03
     23.250  0.3568E+01  0.2379E+03
     23.264  0.7023E+01  0.2380E+03
     23.278  0.3960E+01  0.2380E+03
     23.291  0.4566E+00  0.2380E+03
     23.305  0.3906E+01  0.2381E+03
     23.319  0.1137E+02  0.2382E+03
     23.333  0.1608E+02  0.2385E+03
     23.346  0.1605E+02  0.2387E+03
     23.360  0.1738E+02  0.2389E+03
     23.374  0.1203E+02  0.2391E+03
     23.388  0.8485E+01  0.2392E+03
     23.401  0.1552E+02  0.2394E+03
     23.415  0.1844E+02  0.2397E+03
     23.429  0.8476E+01  0.2398E+03
     23.443  0.8415E+01  0.2399E+03
     23.456  0.7640E+01  0.2400E+03
     23.470  0.5709E+01  0.2401E+03
     23.484  0.8240E+01  0.2402E+03
     23.498  0.7834E+01  0.2403E+03
     23.511  0.3280E+01  0.2403E+03
     23.525  0.7069E+01  0.2404E+03
     23.539  0.1475E+02  0.2406E+03
     23.553  0.9310E+01  0.2408E+03
     23.566  0.1126E+02  0.2409E+03
     23.580  0.9329E+01  0.2411E+03
     23.594  0.6275E+01  0.2411E+03
     23.608  0.1434E+02  0.2413E+03
     23.621  0.8472E+01  0.2415E+03
     23.635  0.1729E+01  0.2415E+03
     23.649  0.2928E+01  0.2415E+03
     23.663  0.5970E+01  0.2416E+03
     23.676  0.8860E+01  0.2417E+03
     23.690  0.8637E+01  0.2418E+03
     23.704  0.1309E+02  0.2420E+03
     23.718  0.8966E+01  0.2421E+03
     23.731  0.9518E+01  0.2423E+03
     23.745  0.5068E+01  0.2423E+03
     23.759  0.9127E+01  0.2425E+03
     23.773  0.1303E+02  0.2427E+03
     23.786  0.1154E+02  0.2428E+03
     23.800  0.6344E+01  0.2429E+03
     23.814  0.7887E+01  0.2430E+03
     23.827  0.5895E+01  0.2431E+03
     23.841  0.8976E+01  0.2432E+03
     23.855  0.1123E+02  0.2434E+03
     23.869  0.7645E+01  0.2435E+03
     23.882  0.8068E+01  0.2436E+03
     23.896  0.1006E+02  0.2437E+03
     23.910  0.8244E+01  0.2438E+03
     23.924  0.2998E+01  0.2439E+03
     23.937  0.5404E+01  0.2439E+03
     23.951  0.4572E+01  0.2440E+03
     23.965  0.4344E+01  0.2441E+03
     23.979  0.2211E+01  0.2441E+03
     23.992  0.3421E+01  0.2441E+03
     24.006  0.5170E+01  0.2442E+03
     24.020  0.1097E+02  0.2444E+03
     24.034  0.1913E+02  0.2446E+03
     24.047  0.1508E+02  0.2448E+03
     24.061  0.5759E+01  0.2449E+03
     24.075  0.5509E+01  0.2450E+03
     24.089  0.9681E+01  0.2451E+03
     24.102  0.7503E+01  0.2452E+03
     24.116  0.6593E+01  0.2453E+03
     24.130  0.4051E+01  0.2454E+03
     24.144  0.9244E+01  0.2455E+03
     24.157  0.1176E+02  0.2457E+03
     24.171  0.8872E+01  0.2458E+03
     24.185  0.5663E+01  0.2459E+03
     24.199  0.7652E+01  0.2460E+03
     24.212  0.1091E+02  0.2461E+03
     24.226  0.8538E+01  0.2462E+03
     24.240  0.1760E+01  0.2463E+03
     24.254  0.2318E+01  0.2463E+03
     24.267  0.3624E+01  0.2463E+03
     24.281  0.8889E+01  0.2465E+03
     24.295  0.6095E+01  0.2466E+03
     24.309  0.5870E+01  0.2466E+03
     24.322  0.6161E+01  0.2467E+03
     24.336  0.8578E+01  0.2468E+03
     24.350  0.1187E+02  0.2470E+03
     24.364  0.1298E+02  0.2472E+03
     24.377  0.9652E+01  0.2473E+03
     24.391  0.4612E+01  0.2474E+03
     24.405  0.3233E+01  0.2474E+03
     24.419  0.1201E+01  0.2474E+03
     24.432  0.1005E+02  0.2476E+03
     24.446  0.1105E+02  0.2477E+03
     24.460  0.3022E+01  0.2478E+03
     24.474  0.6288E+01  0.2479E+03
     24.487  0.9660E+01  0.2480E+03
     24.501  0.4911E+01  0.2481E+03
     24.515  0.4646E+01  0.2481E+03
     24.529  0.1096E+02  0.2483E+03
     24.542  0.1374E+02  0.2485E+03
     24.556  0.6425E+01  0.2485E+03
     24.570  0.5108E+01  0.2486E+03
     24.584  0.4906E+01  0.2487E+03
     24.597  0.5559E+01  0.2488E+03
     24.611  0.5691E+01  0.2488E+03
     24.625  0.4501E+01  0.2489E+03
     24.639  0.1303E+02  0.2491E+03
     24.652  0.1469E+02  0.2493E+03
     24.666  0.1044E+02  0.2494E+03
     24.680  0.1085E+02  0.2496E+03
     24.694  0.1008E+02  0.2497E+03
     24.707  0.7677E+01  0.2498E+03
     24.721  0.3786E+01  0.2499E+03
     24.735  0.2229E+01  0.2499E+03
     24.748  0.1165E+02  0.2501E+03
     24.762  0.7573E+01  0.2502E+03
     24.776  0.3256E+01  0.2502E+03
     24.790  0.5146E+01  0.2503E+03
     24.803  0.3498E+01  0.2503E+03
     24.817  0.1719E+01  0.2503E+03
     24.831  0.3047E+01  0.2504E+03
     24.845  0.6281E+01  0.2505E+03
     24.858  0.6408E+01  0.2506E+03
     24.872  0.1942E+01  0.2506E+03
     24.886  0.7014E+01  0.2507E+03
     24.900  0.1215E+02  0.2509E+03
     24.913  0.1331E+02  0.2510E+03
     24.927  0.5365E+01  0.2511E+03
     24.941  0.3215E+00  0.2511E+03
     24.955  0.4152E+01  0.2512E+03
     24.968  0.1118E+02  0.2513E+03
     24.982  0.2775E+01  0.2514E+03
     24.996  0.2849E+01  0.2514E+03
     25.010  0.4350E+01  0.2515E+03
     25.023  0.4042E+01  0.2515E+03
     25.037  0.1320E+01  0.2515E+03
     25.051  0.3078E+01  0.2516E+03
     25.065  0.6779E+01  0.2517E+03
     25.078  0.4790E+01  0.2517E+03
     25.092  0.7560E+01  0.2518E+03
     25.106  0.1881E+01  0.2519E+03
     25.120  0.3715E+01  0.2519E+03
     25.133  0.1874E+02  0.2522E+03
     25.147  0.1080E+02  0.2523E+03
     25.161  0.8223E+01  0.2524E+03
     25.175  0.4596E+01  0.2525E+03
     25.188  0.2006E+01  0.2525E+03
     25.202  0.2968E+00  0.2525E+03
     25.216  0.2173E+01  0.2526E+03
     25.230  0.5191E+01  0.2526E+03
     25.243  0.1020E+02  0.2528E+03
     25.257  0.1112E+02  0.2529E+03
     25.271  0.3326E+01  0.2530E+03
     25.285  0.3989E+01  0.2530E+03
     25.298  0.7413E+00  0.2530E+03
     25.312  0.2016E+01  0.2531E+03
     25.326  0.3604E+01  0.2531E+03
     25.340  0.8975E+00  0.2531E+03
     25.353  0.3143E+01  0.2532E+03
     25.367  0.2355E+01  0.2532E+03
     25.381  0.4050E+01  0.2533E+03
     25.395  0.1050E+02  0.2534E+03
     25.408  0.1409E+02  0.2536E+03
     25.422  0.9766E+01  0.2537E+03
     25.436  0.8808E+00  0.2537E+03
     25.450  0.3477E+00  0.2537E+03
     25.463  0.2279E+01  0.2538E+03
     25.477  0.2828E+01  0.2538E+03
     25.491  0.6297E+01  0.2539E+03
     25.505  0.5174E+01  0.2540E+03
     25.518  0.2405E+01  0.2540E+03
     25.532  0.2001E+01  0.2540E+03
     25.546  0.3567E+00  0.2540E+03
     25.560  0.2157E+01  0.2541E+03
     25.573  0.5885E+01  0.2542E+03
     25.587  0.1652E+01  0.2542E+03
     25.601  0.3962E+01  0.2542E+03
     25.615  0.1387E+01  0.2542E+03
     25.628  0.2278E-01  0.2542E+03
     25.642  0.1183E-04  0.2542E+03
     25.656  0.3676E-09  0.2542E+03
     25.669  0.1145E-04  0.2542E+03
     25.683  0.1708E-01  0.2542E+03
     25.697  0.8246E+00  0.2543E+03
     25.711  0.2392E+01  0.2543E+03
     25.724  0.6265E+01  0.2544E+03
     25.738  0.5955E+01  0.2545E+03
     25.752  0.4434E+01  0.2545E+03
     25.766  0.4423E+01  0.2546E+03
     25.779  0.1235E+01  0.2546E+03
     25.793  0.5173E+01  0.2547E+03
     25.807  0.2902E+01  0.2547E+03
     25.821  0.1101E+00  0.2547E+03
     25.834  0.1581E-03  0.2547E+03
     25.848  0.1252E-02  0.2547E+03
     25.862  0.2432E+00  0.2547E+03
     25.876  0.1892E+01  0.2547E+03
     25.889  0.8653E+00  0.2548E+03
     25.903  0.1367E+00  0.2548E+03
     25.917  0.2759E+01  0.2548E+03
     25.931  0.6650E+01  0.2549E+03
     25.944  0.2504E+01  0.2549E+03
     25.958  0.1249E+01  0.2549E+03
     25.972  0.3853E+01  0.2550E+03
     25.986  0.9776E+00  0.2550E+03
     25.999  0.1426E-01  0.2550E+03
     26.013  0.7517E-05  0.2550E+03
     26.027  0.3242E-07  0.2550E+03
     26.041  0.4828E-03  0.2550E+03
     26.054  0.2021E+00  0.2550E+03
     26.068  0.3103E+01  0.2550E+03
     26.082  0.3111E+01  0.2551E+03
     26.096  0.5412E+01  0.2552E+03
     26.109  0.8279E+01  0.2553E+03
     26.123  0.1548E+01  0.2553E+03
     26.137  0.1029E+01  0.2553E+03
     26.151  0.1831E+01  0.2553E+03
     26.164  0.1259E+01  0.2554E+03
     26.178  0.1750E+01  0.2554E+03
     26.192  0.1641E+00  0.2554E+03
     26.206  0.5896E-03  0.2554E+03
     26.219  0.1002E-06  0.2554E+03
     26.233  0.5551E-03  0.2554E+03
     26.247  0.2183E+00  0.2554E+03
     26.261  0.3157E+01  0.2554E+03
     26.274  0.2556E+01  0.2555E+03
     26.288  0.1100E+00  0.2555E+03
     26.302  0.4560E-03  0.2555E+03
     26.316  0.1121E+00  0.2555E+03
     26.329  0.1590E+01  0.2555E+03
     26.343  0.1265E+01  0.2555E+03
     26.357  0.5333E-01  0.2555E+03
     26.371  0.1683E-02  0.2555E+03
     26.384  0.1095E+00  0.2555E+03
     26.398  0.6481E+00  0.2555E+03
     26.412  0.2025E+01  0.2555E+03
     26.426  0.7267E+00  0.2556E+03
     26.439  0.2677E-01  0.2556E+03
     26.453  0.7595E+00  0.2556E+03
     26.467  0.1949E+01  0.2556E+03
     26.481  0.3014E+00  0.2556E+03
     26.494  0.6887E+00  0.2556E+03
     26.508  0.4479E+01  0.2557E+03
     26.522  0.3392E+01  0.2557E+03
     26.536  0.5167E+00  0.2557E+03
     26.549  0.1395E+01  0.2557E+03
     26.563  0.3954E+01  0.2558E+03
     26.577  0.6693E+00  0.2558E+03
     26.590  0.4729E-02  0.2558E+03
     26.604  0.9927E-06  0.2558E+03
     26.618  0.5394E-11  0.2558E+03
     26.632  0.0000E+00  0.2558E+03
     26.645  0.0000E+00  0.2558E+03
     26.659  0.0000E+00  0.2558E+03
     26.673  0.0000E+00  0.2558E+03
     26.687  0.0000E+00  0.2558E+03
     26.700  0.0000E+00  0.2558E+03
     26.714  0.0000E+00  0.2558E+03
     26.728  0.0000E+00  0.2558E+03
     26.742  0.0000E+00  0.2558E+03
     26.755  0.0000E+00  0.2558E+03
     26.769  0.0000E+00  0.2558E+03
     26.783  0.2756E-13  0.2558E+03
     26.797  0.1041E-07  0.2558E+03
     26.810  0.1004E-03  0.2558E+03
     26.824  0.2766E-01  0.2558E+03
     26.838  0.2924E+00  0.2558E+03
     26.852  0.2322E+00  0.2558E+03
     26.865  0.1278E+01  0.2558E+03
     26.879  0.1586E+01  0.2559E+03
     26.893  0.2619E+00  0.2559E+03
     26.907  0.3985E+00  0.2559E+03
     26.920  0.1801E+01  0.2559E+03
     26.934  0.3337E+01  0.2559E+03
     26.948  0.8388E+00  0.2559E+03
     26.962  0.1458E-01  0.2559E+03
     26.975  0.8709E-05  0.2559E+03
     26.989  0.1395E-09  0.2559E+03
     27.003  0.0000E+00  0.2559E+03
     27.017  0.0000E+00  0.2559E+03
     27.030  0.5984E-11  0.2559E+03
     27.044  0.9081E-06  0.2559E+03
     27.058  0.3619E-02  0.2559E+03
     27.072  0.4400E+00  0.2560E+03
     27.085  0.2321E+01  0.2560E+03
     27.099  0.7478E+00  0.2560E+03
     27.113  0.1157E-01  0.2560E+03
     27.127  0.5989E-05  0.2560E+03
     27.140  0.8874E-10  0.2560E+03
     27.154  0.0000E+00  0.2560E+03
     27.168  0.0000E+00  0.2560E+03
     27.182  0.0000E+00  0.2560E+03
     27.195  0.0000E+00  0.2560E+03
     27.209  0.0000E+00  0.2560E+03
     27.223  0.0000E+00  0.2560E+03
     27.237  0.0000E+00  0.2560E+03
     27.250  0.0000E+00  0.2560E+03
     27.264  0.0000E+00  0.2560E+03
     27.278  0.0000E+00  0.2560E+03
     27.292  0.0000E+00  0.2560E+03
     27.305  0.0000E+00  0.2560E+03
     27.319  0.0000E+00  0.2560E+03
     27.333  0.0000E+00  0.2560E+03
     27.347  0.0000E+00  0.2560E+03
     27.360  0.0000E+00  0.2560E+03
     27.374  0.0000E+00  0.2560E+03
     27.388  0.0000E+00  0.2560E+03
     27.402  0.0000E+00  0.2560E+03
     27.415  0.0000E+00  0.2560E+03
     27.429  0.0000E+00  0.2560E+03
     27.443  0.0000E+00  0.2560E+03
     27.457  0.0000E+00  0.2560E+03
     27.470  0.0000E+00  0.2560E+03
     27.484  0.0000E+00  0.2560E+03
     27.498  0.5589E-16  0.2560E+03
     27.512  0.8864E-10  0.2560E+03
     27.525  0.3755E-05  0.2560E+03
     27.539  0.4285E-02  0.2560E+03
     27.553  0.1615E+00  0.2560E+03
     27.566  0.3042E+00  0.2560E+03
     27.580  0.3335E-01  0.2560E+03
     27.594  0.1431E-03  0.2560E+03
     27.608  0.1771E-07  0.2560E+03
     27.621  0.5612E-13  0.2560E+03
     27.635  0.0000E+00  0.2560E+03
     27.649  0.0000E+00  0.2560E+03
     27.663  0.0000E+00  0.2560E+03
     27.676  0.0000E+00  0.2560E+03
     27.690  0.0000E+00  0.2560E+03
     27.704  0.0000E+00  0.2560E+03
     27.718  0.0000E+00  0.2560E+03
     27.731  0.0000E+00  0.2560E+03
     27.745  0.0000E+00  0.2560E+03
     27.759  0.0000E+00  0.2560E+03
     27.773  0.0000E+00  0.2560E+03
     27.786  0.0000E+00  0.2560E+03
     27.800  0.0000E+00  0.2560E+03
     27.814  0.0000E+00  0.2560E+03
     27.828  0.0000E+00  0.2560E+03
     27.841  0.0000E+00  0.2560E+03
     27.855  0.0000E+00  0.2560E+03
     27.869  0.0000E+00  0.2560E+03
     27.883  0.0000E+00  0.2560E+03
     27.896  0.0000E+00  0.2560E+03
     27.910  0.0000E+00  0.2560E+03
     27.924  0.0000E+00  0.2560E+03
     27.938  0.0000E+00  0.2560E+03
     27.951  0.0000E+00  0.2560E+03
     27.965  0.0000E+00  0.2560E+03
     27.979  0.0000E+00  0.2560E+03
     27.993  0.0000E+00  0.2560E+03
     28.006  0.0000E+00  0.2560E+03
     28.020  0.0000E+00  0.2560E+03
     28.034  0.0000E+00  0.2560E+03
     28.048  0.0000E+00  0.2560E+03
     28.061  0.0000E+00  0.2560E+03
     28.075  0.0000E+00  0.2560E+03
     28.089  0.0000E+00  0.2560E+03
     28.103  0.0000E+00  0.2560E+03
     28.116  0.0000E+00  0.2560E+03
     28.130  0.0000E+00  0.2560E+03
     28.144  0.0000E+00  0.2560E+03
     28.158  0.0000E+00  0.2560E+03
     28.171  0.0000E+00  0.2560E+03
     28.185  0.0000E+00  0.2560E+03
     28.199  0.0000E+00  0.2560E+03
     28.213  0.0000E+00  0.2560E+03
     28.226  0.0000E+00  0.2560E+03
     28.240  0.0000E+00  0.2560E+03
     28.254  0.0000E+00  0.2560E+03
     28.268  0.0000E+00  0.2560E+03
     28.281  0.0000E+00  0.2560E+03
     28.295  0.0000E+00  0.2560E+03
     28.309  0.0000E+00  0.2560E+03
     28.323  0.0000E+00  0.2560E+03
     28.336  0.0000E+00  0.2560E+03
     28.350  0.0000E+00  0.2560E+03
     28.364  0.0000E+00  0.2560E+03
     28.378  0.0000E+00  0.2560E+03
     28.391  0.0000E+00  0.2560E+03
     28.405  0.0000E+00  0.2560E+03
     28.419  0.0000E+00  0.2560E+03
     28.433  0.0000E+00  0.2560E+03
     28.446  0.0000E+00  0.2560E+03
     28.460  0.0000E+00  0.2560E+03
     28.474  0.0000E+00  0.2560E+03
     28.487  0.0000E+00  0.2560E+03
     28.501  0.0000E+00  0.2560E+03
     28.515  0.0000E+00  0.2560E+03
     28.529  0.0000E+00  0.2560E+03
     28.542  0.0000E+00  0.2560E+03
     28.556  0.0000E+00  0.2560E+03
     28.570  0.0000E+00  0.2560E+03
     28.584  0.0000E+00  0.2560E+03
     28.597  0.0000E+00  0.2560E+03
     28.611  0.0000E+00  0.2560E+03
     28.625  0.0000E+00  0.2560E+03
     28.639  0.0000E+00  0.2560E+03
     28.652  0.0000E+00  0.2560E+03
     28.666  0.0000E+00  0.2560E+03
     28.680  0.0000E+00  0.2560E+03
     28.694  0.0000E+00  0.2560E+03
     28.707  0.0000E+00  0.2560E+03
     28.721  0.0000E+00  0.2560E+03
     28.735  0.0000E+00  0.2560E+03
     28.749  0.0000E+00  0.2560E+03
     28.762  0.0000E+00  0.2560E+03
     28.776  0.0000E+00  0.2560E+03
     28.790  0.0000E+00  0.2560E+03
     28.804  0.0000E+00  0.2560E+03
     28.817  0.0000E+00  0.2560E+03
     28.831  0.0000E+00  0.2560E+03
     28.845  0.0000E+00  0.2560E+03
     28.859  0.0000E+00  0.2560E+03
     28.872  0.0000E+00  0.2560E+03
     28.886  0.0000E+00  0.2560E+03
     28.900  0.0000E+00  0.2560E+03
     28.914  0.0000E+00  0.2560E+03
     28.927  0.0000E+00  0.2560E+03
     28.941  0.0000E+00  0.2560E+03
     28.955  0.0000E+00  0.2560E+03
     28.969  0.0000E+00  0.2560E+03
     28.982  0.0000E+00  0.2560E+03
     28.996  0.0000E+00  0.2560E+03
     29.010  0.0000E+00  0.2560E+03
     29.024  0.0000E+00  0.2560E+03
     29.037  0.0000E+00  0.2560E+03
     29.051  0.0000E+00  0.2560E+03
     29.065  0.0000E+00  0.2560E+03
     29.079  0.0000E+00  0.2560E+03
     29.092  0.0000E+00  0.2560E+03
     29.106  0.0000E+00  0.2560E+03
     29.120  0.0000E+00  0.2560E+03
     29.134  0.0000E+00  0.2560E+03
     29.147  0.0000E+00  0.2560E+03
     29.161  0.0000E+00  0.2560E+03
     29.175  0.0000E+00  0.2560E+03
     29.189  0.0000E+00  0.2560E+03
     29.202  0.0000E+00  0.2560E+03
     29.216  0.0000E+00  0.2560E+03
     29.230  0.0000E+00  0.2560E+03
     29.244  0.0000E+00  0.2560E+03
     29.257  0.0000E+00  0.2560E+03
     29.271  0.0000E+00  0.2560E+03
     29.285  0.0000E+00  0.2560E+03
     29.299  0.0000E+00  0.2560E+03
     29.312  0.0000E+00  0.2560E+03
     29.326  0.0000E+00  0.2560E+03
     29.340  0.0000E+00  0.2560E+03
     29.354  0.0000E+00  0.2560E+03
     29.367  0.0000E+00  0.2560E+03
     29.381  0.0000E+00  0.2560E+03
     29.395  0.0000E+00  0.2560E+03
     29.408  0.0000E+00  0.2560E+03
     29.422  0.0000E+00  0.2560E+03
     29.436  0.0000E+00  0.2560E+03
     29.450  0.0000E+00  0.2560E+03
     29.463  0.0000E+00  0.2560E+03
     29.477  0.0000E+00  0.2560E+03
     29.491  0.0000E+00  0.2560E+03
     29.505  0.0000E+00  0.2560E+03
     29.518  0.0000E+00  0.2560E+03
     29.532  0.0000E+00  0.2560E+03
     29.546  0.0000E+00  0.2560E+03
     29.560  0.0000E+00  0.2560E+03
     29.573  0.0000E+00  0.2560E+03
     29.587  0.0000E+00  0.2560E+03
     29.601  0.0000E+00  0.2560E+03
     29.615  0.0000E+00  0.2560E+03
     29.628  0.0000E+00  0.2560E+03
     29.642  0.0000E+00  0.2560E+03
     29.656  0.0000E+00  0.2560E+03
     29.670  0.0000E+00  0.2560E+03
     29.683  0.0000E+00  0.2560E+03
     29.697  0.0000E+00  0.2560E+03
     29.711  0.0000E+00  0.2560E+03
     29.725  0.0000E+00  0.2560E+03
     29.738  0.0000E+00  0.2560E+03
     29.752  0.0000E+00  0.2560E+03
     29.766  0.0000E+00  0.2560E+03
     29.780  0.0000E+00  0.2560E+03
     29.793  0.0000E+00  0.2560E+03
     29.807  0.0000E+00  0.2560E+03
     29.821  0.0000E+00  0.2560E+03
     29.835  0.0000E+00  0.2560E+03
     29.848  0.0000E+00  0.2560E+03
     29.862  0.0000E+00  0.2560E+03
     29.876  0.0000E+00  0.2560E+03
     29.890  0.0000E+00  0.2560E+03
     29.903  0.0000E+00  0.2560E+03
     29.917  0.0000E+00  0.2560E+03
     29.931  0.0000E+00  0.2560E+03
     29.945  0.0000E+00  0.2560E+03
     29.958  0.0000E+00  0.2560E+03
     29.972  0.0000E+00  0.2560E+03
     29.986  0.0000E+00  0.2560E+03
     30.000  0.0000E+00  0.2560E+03
     30.013  0.0000E+00  0.2560E+03
     30.027  0.0000E+00  0.2560E+03
     30.041  0.0000E+00  0.2560E+03
     30.055  0.0000E+00  0.2560E+03
