  16  16   0   0
  0.2012733E+02  0.4979000E-09  0.4979000E-09  0.1500000E-08  0.5000000E-15
  1.000000000000000E-004
  CAR 
 Dielectric_function                     
     30.19421152    -24.92363944 4000     -0.34785221      1.00000000
    -24.924  0.0000E+00  0.0000E+00
    -24.910  0.0000E+00  0.0000E+00
    -24.896  0.0000E+00  0.0000E+00
    -24.882  0.0000E+00  0.0000E+00
    -24.869  0.0000E+00  0.0000E+00
    -24.855  0.0000E+00  0.0000E+00
    -24.841  0.0000E+00  0.0000E+00
    -24.827  0.0000E+00  0.0000E+00
    -24.813  0.0000E+00  0.0000E+00
    -24.800  0.0000E+00  0.0000E+00
    -24.786  0.0000E+00  0.0000E+00
    -24.772  0.0000E+00  0.0000E+00
    -24.758  0.0000E+00  0.0000E+00
    -24.744  0.0000E+00  0.0000E+00
    -24.731  0.0000E+00  0.0000E+00
    -24.717  0.0000E+00  0.0000E+00
    -24.703  0.0000E+00  0.0000E+00
    -24.689  0.0000E+00  0.0000E+00
    -24.676  0.0000E+00  0.0000E+00
    -24.662  0.0000E+00  0.0000E+00
    -24.648  0.0000E+00  0.0000E+00
    -24.634  0.0000E+00  0.0000E+00
    -24.620  0.0000E+00  0.0000E+00
    -24.607  0.0000E+00  0.0000E+00
    -24.593  0.0000E+00  0.0000E+00
    -24.579  0.0000E+00  0.0000E+00
    -24.565  0.0000E+00  0.0000E+00
    -24.552  0.0000E+00  0.0000E+00
    -24.538  0.0000E+00  0.0000E+00
    -24.524  0.0000E+00  0.0000E+00
    -24.510  0.0000E+00  0.0000E+00
    -24.496  0.0000E+00  0.0000E+00
    -24.483  0.0000E+00  0.0000E+00
    -24.469  0.0000E+00  0.0000E+00
    -24.455  0.0000E+00  0.0000E+00
    -24.441  0.0000E+00  0.0000E+00
    -24.427  0.0000E+00  0.0000E+00
    -24.414  0.0000E+00  0.0000E+00
    -24.400  0.0000E+00  0.0000E+00
    -24.386  0.0000E+00  0.0000E+00
    -24.372  0.0000E+00  0.0000E+00
    -24.359  0.0000E+00  0.0000E+00
    -24.345  0.0000E+00  0.0000E+00
    -24.331  0.0000E+00  0.0000E+00
    -24.317  0.0000E+00  0.0000E+00
    -24.303  0.0000E+00  0.0000E+00
    -24.290  0.0000E+00  0.0000E+00
    -24.276  0.0000E+00  0.0000E+00
    -24.262  0.0000E+00  0.0000E+00
    -24.248  0.0000E+00  0.0000E+00
    -24.234  0.0000E+00  0.0000E+00
    -24.221  0.0000E+00  0.0000E+00
    -24.207  0.0000E+00  0.0000E+00
    -24.193  0.0000E+00  0.0000E+00
    -24.179  0.0000E+00  0.0000E+00
    -24.166  0.0000E+00  0.0000E+00
    -24.152  0.0000E+00  0.0000E+00
    -24.138  0.0000E+00  0.0000E+00
    -24.124  0.0000E+00  0.0000E+00
    -24.110  0.0000E+00  0.0000E+00
    -24.097  0.0000E+00  0.0000E+00
    -24.083  0.0000E+00  0.0000E+00
    -24.069  0.0000E+00  0.0000E+00
    -24.055  0.0000E+00  0.0000E+00
    -24.042  0.0000E+00  0.0000E+00
    -24.028  0.0000E+00  0.0000E+00
    -24.014  0.0000E+00  0.0000E+00
    -24.000  0.0000E+00  0.0000E+00
    -23.986  0.0000E+00  0.0000E+00
    -23.973  0.0000E+00  0.0000E+00
    -23.959  0.0000E+00  0.0000E+00
    -23.945  0.0000E+00  0.0000E+00
    -23.931  0.0000E+00  0.0000E+00
    -23.917  0.0000E+00  0.0000E+00
    -23.904  0.0000E+00  0.0000E+00
    -23.890  0.0000E+00  0.0000E+00
    -23.876  0.0000E+00  0.0000E+00
    -23.862  0.0000E+00  0.0000E+00
    -23.849  0.0000E+00  0.0000E+00
    -23.835  0.0000E+00  0.0000E+00
    -23.821  0.0000E+00  0.0000E+00
    -23.807  0.0000E+00  0.0000E+00
    -23.793  0.0000E+00  0.0000E+00
    -23.780  0.0000E+00  0.0000E+00
    -23.766  0.0000E+00  0.0000E+00
    -23.752  0.0000E+00  0.0000E+00
    -23.738  0.0000E+00  0.0000E+00
    -23.725  0.0000E+00  0.0000E+00
    -23.711  0.0000E+00  0.0000E+00
    -23.697  0.0000E+00  0.0000E+00
    -23.683  0.0000E+00  0.0000E+00
    -23.669  0.0000E+00  0.0000E+00
    -23.656  0.0000E+00  0.0000E+00
    -23.642  0.0000E+00  0.0000E+00
    -23.628  0.0000E+00  0.0000E+00
    -23.614  0.0000E+00  0.0000E+00
    -23.600  0.0000E+00  0.0000E+00
    -23.587  0.0000E+00  0.0000E+00
    -23.573  0.0000E+00  0.0000E+00
    -23.559  0.0000E+00  0.0000E+00
    -23.545  0.0000E+00  0.0000E+00
    -23.532  0.0000E+00  0.0000E+00
    -23.518  0.0000E+00  0.0000E+00
    -23.504  0.0000E+00  0.0000E+00
    -23.490  0.0000E+00  0.0000E+00
    -23.476  0.0000E+00  0.0000E+00
    -23.463  0.0000E+00  0.0000E+00
    -23.449  0.0000E+00  0.0000E+00
    -23.435  0.0000E+00  0.0000E+00
    -23.421  0.0000E+00  0.0000E+00
    -23.408  0.0000E+00  0.0000E+00
    -23.394  0.0000E+00  0.0000E+00
    -23.380  0.0000E+00  0.0000E+00
    -23.366  0.0000E+00  0.0000E+00
    -23.352  0.0000E+00  0.0000E+00
    -23.339  0.0000E+00  0.0000E+00
    -23.325  0.0000E+00  0.0000E+00
    -23.311  0.0000E+00  0.0000E+00
    -23.297  0.0000E+00  0.0000E+00
    -23.283  0.0000E+00  0.0000E+00
    -23.270  0.0000E+00  0.0000E+00
    -23.256  0.0000E+00  0.0000E+00
    -23.242  0.0000E+00  0.0000E+00
    -23.228  0.0000E+00  0.0000E+00
    -23.215  0.0000E+00  0.0000E+00
    -23.201  0.0000E+00  0.0000E+00
    -23.187  0.0000E+00  0.0000E+00
    -23.173  0.0000E+00  0.0000E+00
    -23.159  0.0000E+00  0.0000E+00
    -23.146  0.0000E+00  0.0000E+00
    -23.132  0.0000E+00  0.0000E+00
    -23.118  0.0000E+00  0.0000E+00
    -23.104  0.0000E+00  0.0000E+00
    -23.091  0.0000E+00  0.0000E+00
    -23.077  0.0000E+00  0.0000E+00
    -23.063  0.0000E+00  0.0000E+00
    -23.049  0.0000E+00  0.0000E+00
    -23.035  0.0000E+00  0.0000E+00
    -23.022  0.0000E+00  0.0000E+00
    -23.008  0.0000E+00  0.0000E+00
    -22.994  0.0000E+00  0.0000E+00
    -22.980  0.0000E+00  0.0000E+00
    -22.966  0.0000E+00  0.0000E+00
    -22.953  0.0000E+00  0.0000E+00
    -22.939  0.0000E+00  0.0000E+00
    -22.925  0.0000E+00  0.0000E+00
    -22.911  0.0000E+00  0.0000E+00
    -22.898  0.0000E+00  0.0000E+00
    -22.884  0.0000E+00  0.0000E+00
    -22.870  0.0000E+00  0.0000E+00
    -22.856  0.0000E+00  0.0000E+00
    -22.842  0.0000E+00  0.0000E+00
    -22.829  0.0000E+00  0.0000E+00
    -22.815  0.0000E+00  0.0000E+00
    -22.801  0.0000E+00  0.0000E+00
    -22.787  0.0000E+00  0.0000E+00
    -22.774  0.0000E+00  0.0000E+00
    -22.760  0.0000E+00  0.0000E+00
    -22.746  0.0000E+00  0.0000E+00
    -22.732  0.0000E+00  0.0000E+00
    -22.718  0.0000E+00  0.0000E+00
    -22.705  0.0000E+00  0.0000E+00
    -22.691  0.0000E+00  0.0000E+00
    -22.677  0.0000E+00  0.0000E+00
    -22.663  0.0000E+00  0.0000E+00
    -22.649  0.0000E+00  0.0000E+00
    -22.636  0.0000E+00  0.0000E+00
    -22.622  0.0000E+00  0.0000E+00
    -22.608  0.0000E+00  0.0000E+00
    -22.594  0.0000E+00  0.0000E+00
    -22.581  0.0000E+00  0.0000E+00
    -22.567  0.0000E+00  0.0000E+00
    -22.553  0.0000E+00  0.0000E+00
    -22.539  0.0000E+00  0.0000E+00
    -22.525  0.0000E+00  0.0000E+00
    -22.512  0.0000E+00  0.0000E+00
    -22.498  0.0000E+00  0.0000E+00
    -22.484  0.0000E+00  0.0000E+00
    -22.470  0.4836E-13  0.6665E-15
    -22.456  0.1631E-07  0.2248E-09
    -22.443  0.1379E-03  0.1901E-05
    -22.429  0.3301E-01  0.4569E-03
    -22.415  0.3156E+00  0.4807E-02
    -22.401  0.8681E+00  0.1677E-01
    -22.388  0.1973E+01  0.4397E-01
    -22.374  0.3263E+00  0.4847E-01
    -22.360  0.4259E+00  0.5434E-01
    -22.346  0.2051E+01  0.8261E-01
    -22.332  0.1704E+01  0.1061E+00
    -22.319  0.1700E+01  0.1295E+00
    -22.305  0.1420E+00  0.1315E+00
    -22.291  0.1007E-02  0.1315E+00
    -22.277  0.2228E+00  0.1346E+00
    -22.264  0.3180E+01  0.1784E+00
    -22.250  0.2517E+01  0.2131E+00
    -22.236  0.1529E+00  0.2152E+00
    -22.222  0.1230E+01  0.2322E+00
    -22.208  0.1616E+01  0.2544E+00
    -22.195  0.1182E+00  0.2561E+00
    -22.181  0.7288E-03  0.2561E+00
    -22.167  0.1370E+00  0.2579E+00
    -22.153  0.1692E+01  0.2813E+00
    -22.139  0.2271E+01  0.3126E+00
    -22.126  0.4068E+01  0.3686E+00
    -22.112  0.8613E+00  0.3805E+00
    -22.098  0.7874E-02  0.3806E+00
    -22.084  0.2608E-01  0.3810E+00
    -22.071  0.9783E+00  0.3945E+00
    -22.057  0.1814E+01  0.4195E+00
    -22.043  0.1933E+00  0.4221E+00
    -22.029  0.1126E-02  0.4221E+00
    -22.015  0.1670E+00  0.4245E+00
    -22.002  0.2929E+01  0.4648E+00
    -21.988  0.2787E+01  0.5032E+00
    -21.974  0.2154E+00  0.5062E+00
    -21.960  0.2223E+01  0.5368E+00
    -21.947  0.3429E+01  0.5841E+00
    -21.933  0.2991E+00  0.5882E+00
    -21.919  0.9738E-03  0.5882E+00
    -21.905  0.1794E-05  0.5882E+00
    -21.891  0.5305E-02  0.5883E+00
    -21.878  0.4958E+00  0.5951E+00
    -21.864  0.2019E+01  0.6230E+00
    -21.850  0.4890E+00  0.6297E+00
    -21.836  0.2972E+00  0.6338E+00
    -21.822  0.1990E+01  0.6612E+00
    -21.809  0.2607E+01  0.6972E+00
    -21.795  0.3716E+01  0.7484E+00
    -21.781  0.4287E+00  0.7543E+00
    -21.767  0.2223E-02  0.7543E+00
    -21.754  0.1554E+00  0.7565E+00
    -21.740  0.2865E+01  0.7960E+00
    -21.726  0.2851E+01  0.8353E+00
    -21.712  0.1529E+00  0.8374E+00
    -21.698  0.2875E-03  0.8374E+00
    -21.685  0.1471E-07  0.8374E+00
    -21.671  0.2215E-07  0.8374E+00
    -21.657  0.3051E-03  0.8374E+00
    -21.643  0.1161E+00  0.8390E+00
    -21.630  0.1620E+01  0.8613E+00
    -21.616  0.2267E+01  0.8925E+00
    -21.602  0.4087E+01  0.9489E+00
    -21.588  0.9429E+00  0.9619E+00
    -21.574  0.6350E+00  0.9706E+00
    -21.561  0.3924E+01  0.1025E+01
    -21.547  0.1446E+01  0.1045E+01
    -21.533  0.2481E-01  0.1045E+01
    -21.519  0.1329E-04  0.1045E+01
    -21.505  0.4011E-03  0.1045E+01
    -21.492  0.1842E+00  0.1048E+01
    -21.478  0.3015E+01  0.1089E+01
    -21.464  0.2697E+01  0.1126E+01
    -21.450  0.1283E+00  0.1128E+01
    -21.437  0.2109E-03  0.1128E+01
    -21.423  0.9385E-08  0.1128E+01
    -21.409  0.4670E-07  0.1128E+01
    -21.395  0.5048E-03  0.1128E+01
    -21.381  0.1525E+00  0.1130E+01
    -21.368  0.1748E+01  0.1154E+01
    -21.354  0.2953E+01  0.1195E+01
    -21.340  0.6038E+01  0.1278E+01
    -21.326  0.1150E+01  0.1294E+01
    -21.313  0.9324E-02  0.1294E+01
    -21.299  0.7798E-01  0.1295E+01
    -21.285  0.2274E+01  0.1327E+01
    -21.271  0.3388E+01  0.1373E+01
    -21.257  0.2845E+00  0.1377E+01
    -21.244  0.8871E-03  0.1377E+01
    -21.230  0.7706E-07  0.1377E+01
    -21.216  0.1323E-07  0.1377E+01
    -21.202  0.2672E-03  0.1377E+01
    -21.188  0.1467E+00  0.1379E+01
    -21.175  0.2815E+01  0.1418E+01
    -21.161  0.2901E+01  0.1458E+01
    -21.147  0.1619E+00  0.1460E+01
    -21.133  0.3183E-03  0.1460E+01
    -21.120  0.2498E-04  0.1460E+01
    -21.106  0.3651E-01  0.1461E+01
    -21.092  0.1699E+01  0.1484E+01
    -21.078  0.3794E+01  0.1536E+01
    -21.064  0.5092E+00  0.1543E+01
    -21.051  0.1200E+01  0.1560E+01
    -21.037  0.4085E+01  0.1616E+01
    -21.023  0.2210E+01  0.1647E+01
    -21.009  0.1450E+01  0.1667E+01
    -20.996  0.7958E-01  0.1668E+01
    -20.982  0.2789E-02  0.1668E+01
    -20.968  0.5033E+00  0.1675E+01
    -20.954  0.3807E+01  0.1727E+01
    -20.940  0.1677E+01  0.1750E+01
    -20.927  0.3538E-01  0.1751E+01
    -20.913  0.2370E-04  0.1751E+01
    -20.899  0.4161E-09  0.1751E+01
    -20.885  0.1639E-13  0.1751E+01
    -20.871  0.1156E-07  0.1751E+01
    -20.858  0.2085E-03  0.1751E+01
    -20.844  0.1115E+00  0.1752E+01
    -20.830  0.2404E+01  0.1786E+01
    -20.816  0.3221E+01  0.1830E+01
    -20.803  0.3127E+00  0.1834E+01
    -20.789  0.9778E+00  0.1848E+01
    -20.775  0.2190E+01  0.1878E+01
    -20.761  0.3798E+01  0.1930E+01
    -20.747  0.1992E+01  0.1958E+01
    -20.734  0.5460E-01  0.1958E+01
    -20.720  0.1608E-01  0.1959E+01
    -20.706  0.1087E+01  0.1974E+01
    -20.692  0.3922E+01  0.2028E+01
    -20.679  0.9893E+00  0.2041E+01
    -20.665  0.3519E+00  0.2046E+01
    -20.651  0.1979E+01  0.2074E+01
    -20.637  0.6811E+00  0.2083E+01
    -20.623  0.1081E-01  0.2083E+01
    -20.610  0.3495E-01  0.2084E+01
    -20.596  0.1669E+01  0.2107E+01
    -20.582  0.3812E+01  0.2159E+01
    -20.568  0.5073E+00  0.2166E+01
    -20.554  0.2676E-02  0.2166E+01
    -20.541  0.4045E-06  0.2166E+01
    -20.527  0.1542E-11  0.2166E+01
    -20.513  0.0000E+00  0.2166E+01
    -20.499  0.6188E-14  0.2166E+01
    -20.486  0.6357E-08  0.2166E+01
    -20.472  0.1701E-03  0.2166E+01
    -20.458  0.1369E+00  0.2168E+01
    -20.444  0.4156E+01  0.2225E+01
    -20.430  0.7019E+01  0.2322E+01
    -20.417  0.7699E+00  0.2333E+01
    -20.403  0.1671E+01  0.2356E+01
    -20.389  0.3812E+01  0.2408E+01
    -20.375  0.5079E+00  0.2415E+01
    -20.361  0.2682E-02  0.2415E+01
    -20.348  0.3136E-05  0.2415E+01
    -20.334  0.9213E-02  0.2415E+01
    -20.320  0.9285E+00  0.2428E+01
    -20.306  0.4036E+01  0.2484E+01
    -20.293  0.1039E+01  0.2498E+01
    -20.279  0.1178E-01  0.2498E+01
    -20.265  0.2984E-01  0.2499E+01
    -20.251  0.1030E+01  0.2513E+01
    -20.237  0.1777E+01  0.2537E+01
    -20.224  0.1751E+00  0.2540E+01
    -20.210  0.1684E-02  0.2540E+01
    -20.196  0.3081E+00  0.2544E+01
    -20.182  0.3453E+01  0.2592E+01
    -20.169  0.2193E+01  0.2622E+01
    -20.155  0.7057E-01  0.2623E+01
    -20.141  0.7517E-04  0.2623E+01
    -20.127  0.2138E-08  0.2623E+01
    -20.113  0.1032E-05  0.2623E+01
    -20.100  0.3852E-02  0.2623E+01
    -20.086  0.4270E+00  0.2629E+01
    -20.072  0.2131E+01  0.2658E+01
    -20.058  0.3027E+01  0.2700E+01
    -20.044  0.3181E+01  0.2744E+01
    -20.031  0.3182E+00  0.2748E+01
    -20.017  0.1942E+01  0.2775E+01
    -20.003  0.4089E+01  0.2831E+01
    -19.989  0.4126E+01  0.2888E+01
    -19.976  0.1801E+01  0.2913E+01
    -19.962  0.4211E-01  0.2913E+01
    -19.948  0.3161E-04  0.2913E+01
    -19.934  0.6670E-09  0.2913E+01
    -19.920  0.4636E-05  0.2913E+01
    -19.907  0.1288E-01  0.2914E+01
    -19.893  0.1084E+01  0.2929E+01
    -19.879  0.4032E+01  0.2984E+01
    -19.865  0.8884E+00  0.2996E+01
    -19.852  0.8384E-02  0.2997E+01
    -19.838  0.2723E-05  0.2997E+01
    -19.824  0.1979E-02  0.2997E+01
    -19.810  0.3089E+00  0.3001E+01
    -19.796  0.1959E+01  0.3028E+01
    -19.783  0.7299E+00  0.3038E+01
    -19.769  0.1271E-01  0.3038E+01
    -19.755  0.4444E-01  0.3039E+01
    -19.741  0.1838E+01  0.3064E+01
    -19.727  0.3708E+01  0.3115E+01
    -19.714  0.4326E+00  0.3121E+01
    -19.700  0.3150E-02  0.3121E+01
    -19.686  0.3327E+00  0.3126E+01
    -19.672  0.3514E+01  0.3174E+01
    -19.659  0.2114E+01  0.3203E+01
    -19.645  0.3089E+00  0.3208E+01
    -19.631  0.3262E+01  0.3253E+01
    -19.617  0.2424E+01  0.3286E+01
    -19.603  0.9335E-01  0.3287E+01
    -19.590  0.1213E-03  0.3287E+01
    -19.576  0.5426E-03  0.3287E+01
    -19.562  0.2713E+00  0.3291E+01
    -19.548  0.5318E+01  0.3364E+01
    -19.535  0.6051E+01  0.3448E+01
    -19.521  0.4078E+00  0.3453E+01
    -19.507  0.1077E-02  0.3453E+01
    -19.493  0.8442E-07  0.3453E+01
    -19.479  0.1749E-12  0.3453E+01
    -19.466  0.1130E-08  0.3453E+01
    -19.452  0.4810E-04  0.3453E+01
    -19.438  0.5417E-01  0.3454E+01
    -19.424  0.1985E+01  0.3481E+01
    -19.410  0.3608E+01  0.3531E+01
    -19.397  0.3761E+00  0.3536E+01
    -19.383  0.1500E-02  0.3536E+01
    -19.369  0.1687E-06  0.3536E+01
    -19.355  0.4165E-07  0.3536E+01
    -19.342  0.4674E-03  0.3536E+01
    -19.328  0.1463E+00  0.3538E+01
    -19.314  0.1705E+01  0.3562E+01
    -19.300  0.1123E+01  0.3577E+01
    -19.286  0.3766E-01  0.3578E+01
    -19.273  0.2983E-01  0.3578E+01
    -19.259  0.1970E+01  0.3605E+01
    -19.245  0.6205E+01  0.3691E+01
    -19.231  0.4318E+01  0.3750E+01
    -19.218  0.2445E+01  0.3784E+01
    -19.204  0.9483E-01  0.3785E+01
    -19.190  0.1357E-01  0.3786E+01
    -19.176  0.1105E+01  0.3801E+01
    -19.162  0.4029E+01  0.3856E+01
    -19.149  0.8698E+00  0.3868E+01
    -19.135  0.8017E-02  0.3869E+01
    -19.121  0.2196E-05  0.3869E+01
    -19.107  0.9606E-08  0.3869E+01
    -19.093  0.2141E-03  0.3869E+01
    -19.080  0.1294E+00  0.3870E+01
    -19.066  0.2712E+01  0.3908E+01
    -19.052  0.3849E+01  0.3961E+01
    -19.038  0.4206E+01  0.4019E+01
    -19.025  0.1140E+01  0.4034E+01
    -19.011  0.1439E-01  0.4035E+01
    -18.997  0.5527E-05  0.4035E+01
    -18.983  0.5473E-10  0.4035E+01
    -18.969  0.2207E-10  0.4035E+01
    -18.956  0.2478E-05  0.4035E+01
    -18.942  0.7572E-02  0.4035E+01
    -18.928  0.7741E+00  0.4045E+01
    -18.914  0.3893E+01  0.4099E+01
    -18.901  0.1326E+01  0.4117E+01
    -18.887  0.2423E-01  0.4118E+01
    -18.873  0.1574E-04  0.4118E+01
    -18.859  0.2866E-09  0.4118E+01
    -18.845  0.8012E-11  0.4118E+01
    -18.832  0.1496E-05  0.4118E+01
    -18.818  0.7171E-02  0.4118E+01
    -18.804  0.1012E+01  0.4132E+01
    -18.790  0.5929E+01  0.4213E+01
    -18.776  0.2060E+01  0.4242E+01
    -18.763  0.6691E+00  0.4251E+01
    -18.749  0.4037E+01  0.4307E+01
    -18.735  0.3957E+01  0.4361E+01
    -18.721  0.3195E+01  0.4405E+01
    -18.708  0.2204E+00  0.4408E+01
    -18.694  0.5422E-02  0.4408E+01
    -18.680  0.6840E+00  0.4418E+01
    -18.666  0.3963E+01  0.4472E+01
    -18.652  0.1353E+01  0.4491E+01
    -18.639  0.2122E-01  0.4491E+01
    -18.625  0.1030E-04  0.4491E+01
    -18.611  0.1298E-09  0.4491E+01
    -18.597  0.1695E-10  0.4491E+01
    -18.584  0.2358E-05  0.4491E+01
    -18.570  0.8391E-02  0.4491E+01
    -18.556  0.8887E+00  0.4504E+01
    -18.542  0.4032E+01  0.4559E+01
    -18.528  0.1102E+01  0.4574E+01
    -18.515  0.1293E+01  0.4592E+01
    -18.501  0.3988E+01  0.4647E+01
    -18.487  0.7335E+00  0.4657E+01
    -18.473  0.5618E-02  0.4657E+01
    -18.459  0.1262E-05  0.4657E+01
    -18.446  0.7216E-11  0.4657E+01
    -18.432  0.2942E-09  0.4657E+01
    -18.418  0.1851E-04  0.4657E+01
    -18.404  0.3043E-01  0.4658E+01
    -18.391  0.1576E+01  0.4680E+01
    -18.377  0.3862E+01  0.4733E+01
    -18.363  0.5534E+00  0.4740E+01
    -18.349  0.3368E-02  0.4740E+01
    -18.335  0.8938E-01  0.4742E+01
    -18.322  0.1510E+01  0.4763E+01
    -18.308  0.2548E+01  0.4798E+01
    -18.294  0.4080E+01  0.4854E+01
    -18.280  0.8042E+00  0.4865E+01
    -18.266  0.1582E-01  0.4865E+01
    -18.253  0.9270E+00  0.4878E+01
    -18.239  0.5528E+01  0.4954E+01
    -18.225  0.2507E+01  0.4989E+01
    -18.211  0.6783E-01  0.4990E+01
    -18.198  0.3125E+00  0.4994E+01
    -18.184  0.3331E+01  0.5040E+01
    -18.170  0.2288E+01  0.5071E+01
    -18.156  0.2057E+00  0.5074E+01
    -18.142  0.2586E+01  0.5110E+01
    -18.129  0.3118E+01  0.5153E+01
    -18.115  0.2074E+00  0.5156E+01
    -18.101  0.4964E-03  0.5156E+01
    -18.087  0.3269E-07  0.5156E+01
    -18.074  0.5351E-13  0.5156E+01
    -18.060  0.2036E-10  0.5156E+01
    -18.046  0.1356E-05  0.5156E+01
    -18.032  0.2474E-02  0.5156E+01
    -18.018  0.2285E+00  0.5159E+01
    -18.005  0.3114E+01  0.5202E+01
    -17.991  0.5224E+01  0.5274E+01
    -17.977  0.9798E+00  0.5287E+01
    -17.963  0.1139E+01  0.5303E+01
    -17.949  0.5455E+01  0.5378E+01
    -17.936  0.4758E+01  0.5444E+01
    -17.922  0.6823E+00  0.5453E+01
    -17.908  0.1547E-01  0.5453E+01
    -17.894  0.8658E+00  0.5465E+01
    -17.881  0.4028E+01  0.5521E+01
    -17.867  0.1167E+01  0.5537E+01
    -17.853  0.1319E+01  0.5555E+01
    -17.839  0.2150E+01  0.5585E+01
    -17.825  0.4667E+01  0.5649E+01
    -17.812  0.5522E+01  0.5725E+01
    -17.798  0.3026E+01  0.5767E+01
    -17.784  0.4211E+01  0.5825E+01
    -17.770  0.7851E+01  0.5933E+01
    -17.757  0.1327E+01  0.5951E+01
    -17.743  0.1044E+00  0.5953E+01
    -17.729  0.1517E+01  0.5974E+01
    -17.715  0.1507E+01  0.5995E+01
    -17.701  0.2955E+01  0.6035E+01
    -17.688  0.3803E+01  0.6088E+01
    -17.674  0.5745E+01  0.6167E+01
    -17.660  0.2441E+01  0.6201E+01
    -17.646  0.1917E+01  0.6227E+01
    -17.632  0.4115E+01  0.6284E+01
    -17.619  0.4111E+01  0.6340E+01
    -17.605  0.2162E+01  0.6370E+01
    -17.591  0.2884E+01  0.6410E+01
    -17.577  0.3131E+01  0.6453E+01
    -17.564  0.2253E+01  0.6484E+01
    -17.550  0.7790E+00  0.6495E+01
    -17.536  0.2191E+01  0.6525E+01
    -17.522  0.4213E+01  0.6583E+01
    -17.508  0.2306E+01  0.6615E+01
    -17.495  0.1149E+00  0.6616E+01
    -17.481  0.1681E+01  0.6640E+01
    -17.467  0.3807E+01  0.6692E+01
    -17.453  0.9637E+00  0.6705E+01
    -17.440  0.3729E+01  0.6757E+01
    -17.426  0.1791E+01  0.6781E+01
    -17.412  0.1502E+00  0.6783E+01
    -17.398  0.2496E+01  0.6818E+01
    -17.384  0.5870E+01  0.6899E+01
    -17.371  0.5030E+01  0.6968E+01
    -17.357  0.2091E+01  0.6997E+01
    -17.343  0.3892E+01  0.7051E+01
    -17.329  0.1571E+01  0.7072E+01
    -17.315  0.1550E+00  0.7074E+01
    -17.302  0.2492E+01  0.7109E+01
    -17.288  0.7417E+01  0.7211E+01
    -17.274  0.7216E+01  0.7310E+01
    -17.260  0.3589E+01  0.7360E+01
    -17.247  0.3533E+00  0.7365E+01
    -17.233  0.2545E+01  0.7400E+01
    -17.219  0.4185E+01  0.7458E+01
    -17.205  0.2946E+01  0.7498E+01
    -17.191  0.4815E+01  0.7564E+01
    -17.178  0.3399E+01  0.7611E+01
    -17.164  0.2870E+01  0.7651E+01
    -17.150  0.6785E+01  0.7744E+01
    -17.136  0.5180E+01  0.7816E+01
    -17.123  0.2920E+01  0.7856E+01
    -17.109  0.3257E+01  0.7901E+01
    -17.095  0.2342E+01  0.7933E+01
    -17.081  0.4261E+01  0.7992E+01
    -17.067  0.2298E+01  0.8024E+01
    -17.054  0.4272E+00  0.8030E+01
    -17.040  0.3521E+01  0.8078E+01
    -17.026  0.6123E+01  0.8162E+01
    -17.012  0.9955E+01  0.8300E+01
    -16.998  0.7023E+01  0.8396E+01
    -16.985  0.3592E+00  0.8401E+01
    -16.971  0.7270E-03  0.8401E+01
    -16.957  0.1391E-01  0.8402E+01
    -16.943  0.1068E+01  0.8416E+01
    -16.930  0.4548E+01  0.8479E+01
    -16.916  0.6139E+01  0.8564E+01
    -16.902  0.3182E+01  0.8607E+01
    -16.888  0.1227E+00  0.8609E+01
    -16.874  0.4009E+00  0.8615E+01
    -16.861  0.1171E+01  0.8631E+01
    -16.847  0.3373E+01  0.8677E+01
    -16.833  0.2824E+01  0.8716E+01
    -16.819  0.5356E+01  0.8790E+01
    -16.806  0.5758E+01  0.8869E+01
    -16.792  0.6851E+00  0.8879E+01
    -16.778  0.6113E+00  0.8887E+01
    -16.764  0.3910E+01  0.8941E+01
    -16.750  0.1942E+01  0.8968E+01
    -16.737  0.3776E+01  0.9020E+01
    -16.723  0.1773E+01  0.9044E+01
    -16.709  0.5123E-01  0.9045E+01
    -16.695  0.1175E+01  0.9061E+01
    -16.681  0.5918E+01  0.9143E+01
    -16.668  0.1904E+01  0.9169E+01
    -16.654  0.7390E-01  0.9170E+01
    -16.640  0.1332E+01  0.9188E+01
    -16.626  0.4556E+01  0.9251E+01
    -16.613  0.2961E+01  0.9292E+01
    -16.599  0.6085E+00  0.9300E+01
    -16.585  0.3749E+01  0.9352E+01
    -16.571  0.1774E+01  0.9377E+01
    -16.557  0.4064E-01  0.9377E+01
    -16.544  0.2980E-04  0.9377E+01
    -16.530  0.5744E-09  0.9377E+01
    -16.516  0.4804E-07  0.9377E+01
    -16.502  0.5145E-03  0.9377E+01
    -16.488  0.1541E+00  0.9379E+01
    -16.475  0.1726E+01  0.9403E+01
    -16.461  0.1096E+01  0.9418E+01
    -16.447  0.3528E-01  0.9419E+01
    -16.433  0.3758E-04  0.9419E+01
    -16.420  0.1065E-08  0.9419E+01
    -16.406  0.2676E-14  0.9419E+01
    -16.392  0.2303E-08  0.9419E+01
    -16.378  0.6439E-04  0.9419E+01
    -16.364  0.4836E-01  0.9419E+01
    -16.351  0.1264E+01  0.9437E+01
    -16.337  0.2748E+01  0.9475E+01
    -16.323  0.2787E+01  0.9513E+01
    -16.309  0.4186E+01  0.9571E+01
    -16.296  0.1007E+01  0.9585E+01
    -16.282  0.5071E-01  0.9585E+01
    -16.268  0.1146E+01  0.9601E+01
    -16.254  0.2046E+01  0.9629E+01
    -16.240  0.6252E+01  0.9715E+01
    -16.227  0.1038E+02  0.9859E+01
    -16.213  0.4009E+01  0.9914E+01
    -16.199  0.2849E+00  0.9918E+01
    -16.185  0.2348E+01  0.9950E+01
    -16.171  0.5715E+01  0.1003E+02
    -16.158  0.1639E+01  0.1005E+02
    -16.144  0.5548E+01  0.1013E+02
    -16.130  0.3494E+01  0.1018E+02
    -16.116  0.4082E+01  0.1023E+02
    -16.103  0.1205E+01  0.1025E+02
    -16.089  0.5867E-01  0.1025E+02
    -16.075  0.1804E+01  0.1027E+02
    -16.061  0.3730E+01  0.1033E+02
    -16.047  0.4468E+00  0.1033E+02
    -16.034  0.2088E-02  0.1033E+02
    -16.020  0.4343E-06  0.1033E+02
    -16.006  0.1427E-02  0.1033E+02
    -15.992  0.3664E+00  0.1034E+02
    -15.979  0.3588E+01  0.1039E+02
    -15.965  0.2032E+01  0.1041E+02
    -15.951  0.1326E+01  0.1043E+02
    -15.937  0.3978E+01  0.1049E+02
    -15.923  0.7798E+00  0.1050E+02
    -15.910  0.1501E+01  0.1052E+02
    -15.896  0.3905E+01  0.1057E+02
    -15.882  0.9635E+00  0.1059E+02
    -15.868  0.1997E+01  0.1061E+02
    -15.854  0.6410E+00  0.1062E+02
    -15.841  0.9448E-02  0.1062E+02
    -15.827  0.6465E-01  0.1062E+02
    -15.813  0.2123E+01  0.1065E+02
    -15.799  0.3708E+01  0.1070E+02
    -15.786  0.3424E+01  0.1075E+02
    -15.772  0.2614E+01  0.1079E+02
    -15.758  0.1177E+00  0.1079E+02
    -15.744  0.3462E+00  0.1079E+02
    -15.730  0.3545E+01  0.1084E+02
    -15.717  0.2073E+01  0.1087E+02
    -15.703  0.2980E+00  0.1088E+02
    -15.689  0.3235E+01  0.1092E+02
    -15.675  0.2455E+01  0.1095E+02
    -15.662  0.1003E+00  0.1096E+02
    -15.648  0.4026E+00  0.1096E+02
    -15.634  0.2035E+01  0.1099E+02
    -15.620  0.2116E+01  0.1102E+02
    -15.606  0.3896E+01  0.1107E+02
    -15.593  0.5814E+00  0.1108E+02
    -15.579  0.3505E-02  0.1108E+02
    -15.565  0.6108E-06  0.1108E+02
    -15.551  0.9385E-06  0.1108E+02
    -15.537  0.2692E-02  0.1108E+02
    -15.524  0.2428E+00  0.1108E+02
    -15.510  0.1002E+01  0.1110E+02
    -15.496  0.3520E+00  0.1110E+02
    -15.482  0.2460E+01  0.1114E+02
    -15.469  0.3959E+01  0.1119E+02
    -15.455  0.2206E+01  0.1122E+02
    -15.441  0.4152E+00  0.1123E+02
    -15.427  0.1711E+01  0.1125E+02
    -15.413  0.4303E+01  0.1131E+02
    -15.400  0.2792E+01  0.1135E+02
    -15.386  0.1368E+00  0.1135E+02
    -15.372  0.2138E+00  0.1135E+02
    -15.358  0.3144E+01  0.1140E+02
    -15.345  0.2558E+01  0.1143E+02
    -15.331  0.1329E+00  0.1143E+02
    -15.317  0.2001E+01  0.1146E+02
    -15.303  0.8015E+01  0.1157E+02
    -15.289  0.2545E+01  0.1161E+02
    -15.276  0.2515E+01  0.1164E+02
    -15.262  0.2460E+01  0.1167E+02
    -15.248  0.5103E+00  0.1168E+02
    -15.234  0.5562E-02  0.1168E+02
    -15.220  0.1702E-01  0.1168E+02
    -15.207  0.8254E+00  0.1169E+02
    -15.193  0.1911E+01  0.1172E+02
    -15.179  0.2581E+00  0.1172E+02
    -15.165  0.1201E+00  0.1172E+02
    -15.152  0.2622E+01  0.1176E+02
    -15.138  0.3087E+01  0.1180E+02
    -15.124  0.9458E+00  0.1182E+02
    -15.110  0.7010E+01  0.1191E+02
    -15.096  0.4156E+01  0.1197E+02
    -15.083  0.3646E+00  0.1198E+02
    -15.069  0.1871E+01  0.1200E+02
    -15.055  0.8931E+00  0.1201E+02
    -15.041  0.2071E-01  0.1201E+02
    -15.028  0.4594E-01  0.1201E+02
    -15.014  0.2012E+01  0.1204E+02
    -15.000  0.6555E+01  0.1213E+02
    -14.986  0.3282E+01  0.1218E+02
    -14.972  0.1558E+00  0.1218E+02
    -14.959  0.2912E-03  0.1218E+02
    -14.945  0.1497E-07  0.1218E+02
    -14.931  0.7978E-06  0.1218E+02
    -14.917  0.4561E-02  0.1218E+02
    -14.903  0.7885E+00  0.1219E+02
    -14.890  0.5697E+01  0.1227E+02
    -14.876  0.2495E+01  0.1230E+02
    -14.862  0.5519E+00  0.1231E+02
    -14.848  0.3799E+01  0.1236E+02
    -14.835  0.1695E+01  0.1239E+02
    -14.821  0.5372E+00  0.1239E+02
    -14.807  0.2560E+01  0.1243E+02
    -14.793  0.5517E+01  0.1251E+02
    -14.779  0.3769E+01  0.1256E+02
    -14.766  0.3852E+01  0.1261E+02
    -14.752  0.2338E+01  0.1264E+02
    -14.738  0.2346E+01  0.1268E+02
    -14.724  0.3860E+01  0.1273E+02
    -14.711  0.2286E+01  0.1276E+02
    -14.697  0.7863E-01  0.1276E+02
    -14.683  0.1935E-02  0.1276E+02
    -14.669  0.3003E+00  0.1277E+02
    -14.655  0.2400E+01  0.1280E+02
    -14.642  0.4482E+01  0.1286E+02
    -14.628  0.1815E+01  0.1289E+02
    -14.614  0.6283E+00  0.1289E+02
    -14.600  0.3893E+01  0.1295E+02
    -14.586  0.1594E+01  0.1297E+02
    -14.573  0.1466E+01  0.1299E+02
    -14.559  0.1420E+01  0.1301E+02
    -14.545  0.8502E-01  0.1301E+02
    -14.531  0.1244E+01  0.1303E+02
    -14.518  0.7618E+01  0.1313E+02
    -14.504  0.3114E+01  0.1318E+02
    -14.490  0.5785E+00  0.1318E+02
    -14.476  0.3400E+01  0.1323E+02
    -14.462  0.4448E+01  0.1329E+02
    -14.449  0.6713E+00  0.1330E+02
    -14.435  0.4611E-02  0.1330E+02
    -14.421  0.1047E-05  0.1330E+02
    -14.407  0.1171E-02  0.1330E+02
    -14.393  0.3294E+00  0.1331E+02
    -14.380  0.3571E+01  0.1335E+02
    -14.366  0.4282E+01  0.1341E+02
    -14.352  0.3550E+01  0.1346E+02
    -14.338  0.8988E+00  0.1348E+02
    -14.325  0.3891E+01  0.1353E+02
    -14.311  0.1949E+01  0.1356E+02
    -14.297  0.2040E+01  0.1358E+02
    -14.283  0.5753E+00  0.1359E+02
    -14.269  0.5379E+00  0.1360E+02
    -14.256  0.2017E+01  0.1363E+02
    -14.242  0.4542E+00  0.1363E+02
    -14.228  0.2956E-01  0.1363E+02
    -14.214  0.2102E+01  0.1366E+02
    -14.201  0.1104E+02  0.1381E+02
    -14.187  0.4844E+01  0.1388E+02
    -14.173  0.2253E+01  0.1391E+02
    -14.159  0.3670E+01  0.1396E+02
    -14.145  0.3244E+01  0.1401E+02
    -14.132  0.2817E+01  0.1405E+02
    -14.118  0.1318E+01  0.1406E+02
    -14.104  0.4017E+01  0.1412E+02
    -14.090  0.8135E+00  0.1413E+02
    -14.076  0.8087E-01  0.1413E+02
    -14.063  0.2778E+01  0.1417E+02
    -14.049  0.5651E+01  0.1425E+02
    -14.035  0.3510E+01  0.1430E+02
    -14.021  0.4405E+01  0.1436E+02
    -14.008  0.1582E+01  0.1438E+02
    -13.994  0.7514E-01  0.1438E+02
    -13.980  0.3241E+00  0.1439E+02
    -13.966  0.5194E+01  0.1446E+02
    -13.952  0.6444E+01  0.1455E+02
    -13.939  0.5562E+01  0.1462E+02
    -13.925  0.3439E+01  0.1467E+02
    -13.911  0.1249E+00  0.1467E+02
    -13.897  0.1588E-03  0.1467E+02
    -13.884  0.6642E-06  0.1467E+02
    -13.870  0.4853E-02  0.1467E+02
    -13.856  0.1054E+01  0.1469E+02
    -13.842  0.9170E+01  0.1481E+02
    -13.828  0.4735E+01  0.1488E+02
    -13.815  0.1654E+01  0.1490E+02
    -13.801  0.6511E+01  0.1499E+02
    -13.787  0.3760E+01  0.1504E+02
    -13.773  0.2235E+00  0.1504E+02
    -13.759  0.1781E-01  0.1505E+02
    -13.746  0.1773E+01  0.1507E+02
    -13.732  0.8033E+01  0.1518E+02
    -13.718  0.2201E+01  0.1521E+02
    -13.704  0.2914E+00  0.1521E+02
    -13.691  0.4347E+01  0.1527E+02
    -13.677  0.5726E+01  0.1535E+02
    -13.663  0.4149E+01  0.1541E+02
    -13.649  0.1531E+01  0.1543E+02
    -13.635  0.7285E+01  0.1553E+02
    -13.622  0.8731E+01  0.1565E+02
    -13.608  0.1127E+01  0.1567E+02
    -13.594  0.1564E+01  0.1569E+02
    -13.580  0.3872E+01  0.1574E+02
    -13.567  0.5652E+00  0.1575E+02
    -13.553  0.2991E+00  0.1575E+02
    -13.539  0.2165E+01  0.1578E+02
    -13.525  0.4745E+01  0.1585E+02
    -13.511  0.7151E+01  0.1595E+02
    -13.498  0.5754E+01  0.1603E+02
    -13.484  0.3506E+01  0.1608E+02
    -13.470  0.1653E+01  0.1610E+02
    -13.456  0.3157E+01  0.1614E+02
    -13.442  0.6685E+01  0.1623E+02
    -13.429  0.3867E+01  0.1629E+02
    -13.415  0.1284E+01  0.1631E+02
    -13.401  0.1750E+01  0.1633E+02
    -13.387  0.3348E+00  0.1633E+02
    -13.374  0.4926E+01  0.1640E+02
    -13.360  0.8917E+01  0.1653E+02
    -13.346  0.3994E+01  0.1658E+02
    -13.332  0.4974E+01  0.1665E+02
    -13.318  0.1097E+01  0.1666E+02
    -13.305  0.2127E-01  0.1666E+02
    -13.291  0.1336E-01  0.1666E+02
    -13.277  0.2423E+00  0.1667E+02
    -13.263  0.5646E+00  0.1668E+02
    -13.250  0.4254E+01  0.1673E+02
    -13.236  0.4263E+01  0.1679E+02
    -13.222  0.3079E+01  0.1684E+02
    -13.208  0.5435E+01  0.1691E+02
    -13.194  0.7427E+00  0.1692E+02
    -13.181  0.9653E+00  0.1693E+02
    -13.167  0.3200E+01  0.1698E+02
    -13.153  0.1747E+01  0.1700E+02
    -13.139  0.1141E+00  0.1700E+02
    -13.125  0.8409E+00  0.1702E+02
    -13.112  0.1966E+01  0.1704E+02
    -13.098  0.8691E+00  0.1705E+02
    -13.084  0.1557E+01  0.1708E+02
    -13.070  0.5292E+01  0.1715E+02
    -13.057  0.2397E+01  0.1718E+02
    -13.043  0.3052E+00  0.1719E+02
    -13.029  0.3036E+01  0.1723E+02
    -13.015  0.2675E+01  0.1726E+02
    -13.001  0.1250E+00  0.1727E+02
    -12.988  0.2016E-03  0.1727E+02
    -12.974  0.8791E-08  0.1727E+02
    -12.960  0.4429E-07  0.1727E+02
    -12.946  0.6102E-03  0.1727E+02
    -12.933  0.2323E+00  0.1727E+02
    -12.919  0.3216E+01  0.1731E+02
    -12.905  0.2477E+01  0.1735E+02
    -12.891  0.9935E-01  0.1735E+02
    -12.877  0.1351E-03  0.1735E+02
    -12.864  0.4934E-08  0.1735E+02
    -12.850  0.3241E-12  0.1735E+02
    -12.836  0.1255E-06  0.1735E+02
    -12.822  0.1230E-02  0.1735E+02
    -12.808  0.3404E+00  0.1735E+02
    -12.795  0.3914E+01  0.1741E+02
    -12.781  0.5745E+01  0.1749E+02
    -12.767  0.2950E+01  0.1753E+02
    -12.753  0.1899E+01  0.1755E+02
    -12.740  0.2117E+00  0.1756E+02
    -12.726  0.9406E-03  0.1756E+02
    -12.712  0.1187E-06  0.1756E+02
    -12.698  0.2184E-06  0.1756E+02
    -12.684  0.1780E-02  0.1756E+02
    -12.671  0.4114E+00  0.1756E+02
    -12.657  0.3673E+01  0.1761E+02
    -12.643  0.1891E+01  0.1764E+02
    -12.629  0.4777E-01  0.1764E+02
    -12.616  0.1064E-02  0.1764E+02
    -12.602  0.2943E+00  0.1764E+02
    -12.588  0.3363E+01  0.1769E+02
    -12.574  0.2283E+01  0.1772E+02
    -12.560  0.8389E-01  0.1772E+02
    -12.547  0.1103E-03  0.1772E+02
    -12.533  0.4110E-08  0.1772E+02
    -12.519  0.1382E-06  0.1772E+02
    -12.505  0.1108E-02  0.1772E+02
    -12.491  0.2946E+00  0.1773E+02
    -12.478  0.4081E+01  0.1778E+02
    -12.464  0.4338E+01  0.1784E+02
    -12.450  0.3357E+00  0.1785E+02
    -12.436  0.1040E+01  0.1786E+02
    -12.423  0.5421E+01  0.1794E+02
    -12.409  0.2635E+01  0.1797E+02
    -12.395  0.1768E+01  0.1800E+02
    -12.381  0.1134E+01  0.1801E+02
    -12.367  0.3871E-01  0.1801E+02
    -12.354  0.4400E-04  0.1801E+02
    -12.340  0.1334E-08  0.1801E+02
    -12.326  0.1847E-08  0.1801E+02
    -12.312  0.5523E-04  0.1801E+02
    -12.298  0.4439E-01  0.1801E+02
    -12.285  0.1282E+01  0.1803E+02
    -12.271  0.3560E+01  0.1808E+02
    -12.257  0.3502E+01  0.1813E+02
    -12.243  0.8508E+00  0.1814E+02
    -12.230  0.3131E+01  0.1818E+02
    -12.216  0.2989E+01  0.1823E+02
    -12.202  0.4327E+01  0.1829E+02
    -12.188  0.4073E+01  0.1834E+02
    -12.174  0.3505E+01  0.1839E+02
    -12.161  0.4985E+01  0.1846E+02
    -12.147  0.3481E+01  0.1851E+02
    -12.133  0.4641E+01  0.1857E+02
    -12.119  0.2020E+01  0.1860E+02
    -12.106  0.2040E+01  0.1863E+02
    -12.092  0.7738E+00  0.1864E+02
    -12.078  0.1591E+01  0.1866E+02
    -12.064  0.4819E+01  0.1873E+02
    -12.050  0.5456E+01  0.1880E+02
    -12.037  0.6163E+01  0.1889E+02
    -12.023  0.2706E+01  0.1892E+02
    -12.009  0.2549E+01  0.1896E+02
    -11.995  0.3492E+01  0.1901E+02
    -11.981  0.8498E+00  0.1902E+02
    -11.968  0.5458E+01  0.1909E+02
    -11.954  0.6015E+01  0.1918E+02
    -11.940  0.2922E+01  0.1922E+02
    -11.926  0.1070E+01  0.1923E+02
    -11.913  0.4466E+01  0.1929E+02
    -11.899  0.5668E+01  0.1937E+02
    -11.885  0.3793E+01  0.1942E+02
    -11.871  0.2047E+00  0.1943E+02
    -11.857  0.1964E+00  0.1943E+02
    -11.844  0.3069E+01  0.1947E+02
    -11.830  0.2640E+01  0.1951E+02
    -11.816  0.3816E+00  0.1951E+02
    -11.802  0.4712E+01  0.1958E+02
    -11.789  0.9969E+01  0.1971E+02
    -11.775  0.3062E+01  0.1976E+02
    -11.761  0.7096E-01  0.1976E+02
    -11.747  0.3964E-02  0.1976E+02
    -11.733  0.8594E+00  0.1977E+02
    -11.720  0.7531E+01  0.1987E+02
    -11.706  0.7902E+01  0.1998E+02
    -11.692  0.7110E+01  0.2008E+02
    -11.678  0.1187E+01  0.2010E+02
    -11.664  0.3838E+01  0.2015E+02
    -11.651  0.3508E+01  0.2020E+02
    -11.637  0.3765E+01  0.2025E+02
    -11.623  0.4456E+00  0.2026E+02
    -11.609  0.2305E-02  0.2026E+02
    -11.596  0.1343E+00  0.2026E+02
    -11.582  0.2737E+01  0.2030E+02
    -11.568  0.2977E+01  0.2034E+02
    -11.554  0.1764E+00  0.2034E+02
    -11.540  0.3711E-03  0.2034E+02
    -11.527  0.2134E-07  0.2034E+02
    -11.513  0.3077E-13  0.2034E+02
    -11.499  0.0000E+00  0.2034E+02
    -11.485  0.6997E-11  0.2034E+02
    -11.472  0.1114E-05  0.2034E+02
    -11.458  0.4759E-02  0.2034E+02
    -11.444  0.6430E+00  0.2035E+02
    -11.430  0.3952E+01  0.2040E+02
    -11.416  0.4321E+01  0.2046E+02
    -11.403  0.5521E+01  0.2054E+02
    -11.389  0.1649E+01  0.2056E+02
    -11.375  0.7699E+01  0.2067E+02
    -11.361  0.5999E+01  0.2075E+02
    -11.347  0.3144E+01  0.2079E+02
    -11.334  0.2056E+00  0.2080E+02
    -11.320  0.8004E-01  0.2080E+02
    -11.306  0.3354E+01  0.2084E+02
    -11.292  0.1075E+02  0.2099E+02
    -11.279  0.6374E+01  0.2108E+02
    -11.265  0.4351E+01  0.2114E+02
    -11.251  0.2472E+01  0.2117E+02
    -11.237  0.3138E+01  0.2122E+02
    -11.223  0.2465E+01  0.2125E+02
    -11.210  0.1585E+00  0.2125E+02
    -11.196  0.4641E-03  0.2125E+02
    -11.182  0.4025E-07  0.2125E+02
    -11.168  0.8830E-13  0.2125E+02
    -11.155  0.0000E+00  0.2125E+02
    -11.141  0.0000E+00  0.2125E+02
    -11.127  0.4315E-13  0.2125E+02
    -11.113  0.2775E-07  0.2125E+02
    -11.099  0.4440E-03  0.2125E+02
    -11.086  0.1949E+00  0.2126E+02
    -11.072  0.3064E+01  0.2130E+02
    -11.058  0.2645E+01  0.2133E+02
    -11.044  0.1208E+00  0.2134E+02
    -11.030  0.3820E-01  0.2134E+02
    -11.017  0.1732E+01  0.2136E+02
    -11.003  0.4301E+01  0.2142E+02
    -10.989  0.3577E+01  0.2147E+02
    -10.975  0.7785E+01  0.2158E+02
    -10.962  0.3550E+01  0.2162E+02
    -10.948  0.1042E+00  0.2163E+02
    -10.934  0.1402E-03  0.2163E+02
    -10.920  0.2576E-01  0.2163E+02
    -10.906  0.9739E+00  0.2164E+02
    -10.893  0.1937E+01  0.2167E+02
    -10.879  0.3211E+01  0.2171E+02
    -10.865  0.8139E+01  0.2182E+02
    -10.851  0.9280E+01  0.2195E+02
    -10.838  0.3706E+01  0.2200E+02
    -10.824  0.5314E+01  0.2208E+02
    -10.810  0.7254E+01  0.2218E+02
    -10.796  0.7530E+01  0.2228E+02
    -10.782  0.1128E+02  0.2243E+02
    -10.769  0.5246E+01  0.2251E+02
    -10.755  0.2149E+01  0.2254E+02
    -10.741  0.3169E+00  0.2254E+02
    -10.727  0.2283E+01  0.2257E+02
    -10.713  0.4157E+01  0.2263E+02
    -10.700  0.5069E+00  0.2264E+02
    -10.686  0.7650E+00  0.2265E+02
    -10.672  0.5350E+01  0.2272E+02
    -10.658  0.2829E+01  0.2276E+02
    -10.645  0.8985E-01  0.2276E+02
    -10.631  0.4605E-01  0.2276E+02
    -10.617  0.1212E+01  0.2278E+02
    -10.603  0.2234E+01  0.2281E+02
    -10.589  0.4023E+01  0.2286E+02
    -10.576  0.1033E+02  0.2301E+02
    -10.562  0.9973E+01  0.2314E+02
    -10.548  0.8587E+01  0.2326E+02
    -10.534  0.6922E+01  0.2336E+02
    -10.521  0.1799E+01  0.2338E+02
    -10.507  0.1433E+00  0.2339E+02
    -10.493  0.2697E+01  0.2342E+02
    -10.479  0.5509E+01  0.2350E+02
    -10.465  0.7717E+00  0.2351E+02
    -10.452  0.9213E+00  0.2352E+02
    -10.438  0.1856E+01  0.2355E+02
    -10.424  0.2172E+00  0.2355E+02
    -10.410  0.1082E-02  0.2355E+02
    -10.396  0.9356E-01  0.2355E+02
    -10.383  0.3128E+01  0.2359E+02
    -10.369  0.5298E+01  0.2367E+02
    -10.355  0.5168E+00  0.2367E+02
    -10.341  0.2085E-02  0.2367E+02
    -10.328  0.7929E-01  0.2368E+02
    -10.314  0.1443E+01  0.2370E+02
    -10.300  0.1665E+01  0.2372E+02
    -10.286  0.2563E+01  0.2375E+02
    -10.272  0.3664E+01  0.2380E+02
    -10.259  0.6109E+01  0.2389E+02
    -10.245  0.5081E+01  0.2396E+02
    -10.231  0.2269E+01  0.2399E+02
    -10.217  0.6423E+01  0.2408E+02
    -10.203  0.6979E+01  0.2417E+02
    -10.190  0.6332E+01  0.2426E+02
    -10.176  0.1632E+02  0.2449E+02
    -10.162  0.1228E+02  0.2466E+02
    -10.148  0.1096E+01  0.2467E+02
    -10.135  0.5954E+00  0.2468E+02
    -10.121  0.5079E+01  0.2475E+02
    -10.107  0.6105E+01  0.2483E+02
    -10.093  0.2605E+01  0.2487E+02
    -10.079  0.6719E+00  0.2488E+02
    -10.066  0.5193E+00  0.2489E+02
    -10.052  0.3858E+01  0.2494E+02
    -10.038  0.2897E+01  0.2498E+02
    -10.024  0.1653E+01  0.2500E+02
    -10.011  0.1187E+00  0.2500E+02
     -9.997  0.3176E-03  0.2500E+02
     -9.983  0.2350E-07  0.2500E+02
     -9.969  0.3051E-07  0.2500E+02
     -9.955  0.4736E-03  0.2500E+02
     -9.942  0.2020E+00  0.2501E+02
     -9.928  0.3096E+01  0.2505E+02
     -9.914  0.2611E+01  0.2508E+02
     -9.900  0.2373E+00  0.2509E+02
     -9.886  0.2716E+01  0.2513E+02
     -9.873  0.7191E+01  0.2522E+02
     -9.859  0.4655E+01  0.2529E+02
     -9.845  0.2258E+01  0.2532E+02
     -9.831  0.4436E+01  0.2538E+02
     -9.818  0.6042E+01  0.2546E+02
     -9.804  0.1014E+02  0.2560E+02
     -9.790  0.8898E+01  0.2573E+02
     -9.776  0.4511E+01  0.2579E+02
     -9.762  0.1997E+01  0.2582E+02
     -9.749  0.5998E+01  0.2590E+02
     -9.735  0.3653E+01  0.2595E+02
     -9.721  0.5601E+01  0.2603E+02
     -9.707  0.1063E+01  0.2604E+02
     -9.694  0.5677E+00  0.2605E+02
     -9.680  0.4078E+01  0.2611E+02
     -9.666  0.3427E+01  0.2615E+02
     -9.652  0.9515E+00  0.2617E+02
     -9.638  0.1008E+00  0.2617E+02
     -9.625  0.2279E+01  0.2620E+02
     -9.611  0.3388E+01  0.2625E+02
     -9.597  0.9437E+00  0.2626E+02
     -9.583  0.4474E+01  0.2632E+02
     -9.569  0.5218E+01  0.2639E+02
     -9.556  0.1660E+01  0.2641E+02
     -9.542  0.3590E-01  0.2642E+02
     -9.528  0.4635E+00  0.2642E+02
     -9.514  0.5242E+01  0.2649E+02
     -9.501  0.7541E+01  0.2660E+02
     -9.487  0.8681E+01  0.2672E+02
     -9.473  0.2150E+01  0.2675E+02
     -9.459  0.1491E+01  0.2677E+02
     -9.445  0.7365E+01  0.2687E+02
     -9.432  0.6059E+01  0.2695E+02
     -9.418  0.1285E+01  0.2697E+02
     -9.404  0.3521E+01  0.2702E+02
     -9.390  0.1853E+01  0.2704E+02
     -9.377  0.1690E+01  0.2707E+02
     -9.363  0.3907E+01  0.2712E+02
     -9.349  0.2716E+01  0.2716E+02
     -9.335  0.5075E+01  0.2723E+02
     -9.321  0.3238E+01  0.2727E+02
     -9.308  0.5702E+01  0.2735E+02
     -9.294  0.4373E+01  0.2741E+02
     -9.280  0.4689E+00  0.2742E+02
     -9.266  0.1021E+01  0.2743E+02
     -9.252  0.4407E+01  0.2749E+02
     -9.239  0.6201E+01  0.2758E+02
     -9.225  0.5581E+01  0.2766E+02
     -9.211  0.2749E+01  0.2769E+02
     -9.197  0.5510E+01  0.2777E+02
     -9.184  0.1243E+02  0.2794E+02
     -9.170  0.6945E+01  0.2804E+02
     -9.156  0.3831E+00  0.2804E+02
     -9.142  0.2522E+01  0.2808E+02
     -9.128  0.5626E+01  0.2815E+02
     -9.115  0.8820E+00  0.2817E+02
     -9.101  0.1308E+01  0.2818E+02
     -9.087  0.1772E+01  0.2821E+02
     -9.073  0.5211E+01  0.2828E+02
     -9.060  0.6286E+01  0.2837E+02
     -9.046  0.4449E+00  0.2837E+02
     -9.032  0.1049E+01  0.2839E+02
     -9.018  0.4425E+01  0.2845E+02
     -9.004  0.4650E+01  0.2851E+02
     -8.991  0.3481E+01  0.2856E+02
     -8.977  0.1706E+01  0.2858E+02
     -8.963  0.4707E+01  0.2865E+02
     -8.949  0.5984E+01  0.2873E+02
     -8.935  0.7549E+01  0.2884E+02
     -8.922  0.1006E+02  0.2897E+02
     -8.908  0.1212E+02  0.2914E+02
     -8.894  0.7018E+01  0.2924E+02
     -8.880  0.1317E+01  0.2926E+02
     -8.867  0.5203E+01  0.2933E+02
     -8.853  0.6858E+01  0.2942E+02
     -8.839  0.2138E+01  0.2945E+02
     -8.825  0.5382E-01  0.2945E+02
     -8.811  0.5890E-02  0.2945E+02
     -8.798  0.7681E+00  0.2946E+02
     -8.784  0.5344E+01  0.2954E+02
     -8.770  0.5228E+01  0.2961E+02
     -8.756  0.1393E+01  0.2963E+02
     -8.743  0.5583E+01  0.2971E+02
     -8.729  0.4635E+01  0.2977E+02
     -8.715  0.6910E+01  0.2986E+02
     -8.701  0.6391E+01  0.2995E+02
     -8.687  0.5534E+01  0.3003E+02
     -8.674  0.4748E+01  0.3009E+02
     -8.660  0.9783E+01  0.3023E+02
     -8.646  0.7993E+01  0.3034E+02
     -8.632  0.1886E+01  0.3037E+02
     -8.618  0.8920E-01  0.3037E+02
     -8.605  0.1201E+01  0.3038E+02
     -8.591  0.5686E+01  0.3046E+02
     -8.577  0.5427E+01  0.3054E+02
     -8.563  0.4542E+01  0.3060E+02
     -8.550  0.2019E+01  0.3063E+02
     -8.536  0.3470E+01  0.3067E+02
     -8.522  0.6016E+01  0.3076E+02
     -8.508  0.6526E+01  0.3085E+02
     -8.494  0.3182E+01  0.3089E+02
     -8.481  0.1549E+01  0.3091E+02
     -8.467  0.1786E+01  0.3094E+02
     -8.453  0.7367E+01  0.3104E+02
     -8.439  0.7728E+01  0.3115E+02
     -8.425  0.7842E+01  0.3125E+02
     -8.412  0.8915E+01  0.3138E+02
     -8.398  0.2590E+01  0.3141E+02
     -8.384  0.2967E+01  0.3145E+02
     -8.370  0.1027E+02  0.3159E+02
     -8.357  0.9676E+01  0.3173E+02
     -8.343  0.6145E+01  0.3181E+02
     -8.329  0.1016E+01  0.3183E+02
     -8.315  0.1010E-01  0.3183E+02
     -8.301  0.1178E-04  0.3183E+02
     -8.288  0.1982E-01  0.3183E+02
     -8.274  0.1578E+01  0.3185E+02
     -8.260  0.7597E+01  0.3195E+02
     -8.246  0.5636E+01  0.3203E+02
     -8.233  0.5064E+01  0.3210E+02
     -8.219  0.1349E+01  0.3212E+02
     -8.205  0.2275E+01  0.3215E+02
     -8.191  0.4878E+01  0.3222E+02
     -8.177  0.2814E+01  0.3226E+02
     -8.164  0.3080E+01  0.3230E+02
     -8.150  0.4380E+01  0.3236E+02
     -8.136  0.1157E+02  0.3252E+02
     -8.122  0.1322E+02  0.3270E+02
     -8.108  0.1523E+02  0.3291E+02
     -8.095  0.9405E+01  0.3304E+02
     -8.081  0.2793E+01  0.3308E+02
     -8.067  0.9792E+00  0.3309E+02
     -8.053  0.1172E+01  0.3311E+02
     -8.040  0.5841E+01  0.3319E+02
     -8.026  0.4595E+01  0.3325E+02
     -8.012  0.4515E+00  0.3326E+02
     -7.998  0.4284E-01  0.3326E+02
     -7.984  0.2281E+01  0.3329E+02
     -7.971  0.8686E+01  0.3341E+02
     -7.957  0.5415E+01  0.3349E+02
     -7.943  0.4068E+01  0.3354E+02
     -7.929  0.1313E+01  0.3356E+02
     -7.916  0.5495E+01  0.3364E+02
     -7.902  0.5253E+01  0.3371E+02
     -7.888  0.2402E+01  0.3374E+02
     -7.874  0.9240E+01  0.3387E+02
     -7.860  0.6716E+01  0.3396E+02
     -7.847  0.2821E+01  0.3400E+02
     -7.833  0.1289E+01  0.3402E+02
     -7.819  0.2790E+01  0.3406E+02
     -7.805  0.4531E+01  0.3412E+02
     -7.791  0.4418E+01  0.3418E+02
     -7.778  0.5008E+01  0.3425E+02
     -7.764  0.3805E+01  0.3430E+02
     -7.750  0.3652E+01  0.3435E+02
     -7.736  0.2219E+01  0.3438E+02
     -7.723  0.5250E+01  0.3445E+02
     -7.709  0.1056E+02  0.3460E+02
     -7.695  0.8871E+01  0.3472E+02
     -7.681  0.7642E+01  0.3483E+02
     -7.667  0.1194E+01  0.3484E+02
     -7.654  0.3869E+01  0.3490E+02
     -7.640  0.3250E+01  0.3494E+02
     -7.626  0.2681E+01  0.3498E+02
     -7.612  0.7712E+01  0.3509E+02
     -7.599  0.8010E+01  0.3520E+02
     -7.585  0.5436E+01  0.3527E+02
     -7.571  0.2190E+01  0.3530E+02
     -7.557  0.1312E+01  0.3532E+02
     -7.543  0.2379E+01  0.3535E+02
     -7.530  0.4718E+01  0.3542E+02
     -7.516  0.3522E+01  0.3547E+02
     -7.502  0.2859E+01  0.3550E+02
     -7.488  0.6399E+01  0.3559E+02
     -7.474  0.3808E+01  0.3565E+02
     -7.461  0.2916E+01  0.3569E+02
     -7.447  0.4217E+01  0.3574E+02
     -7.433  0.3309E+01  0.3579E+02
     -7.419  0.1328E+02  0.3597E+02
     -7.406  0.1065E+02  0.3612E+02
     -7.392  0.1748E+02  0.3636E+02
     -7.378  0.1329E+02  0.3654E+02
     -7.364  0.6912E+01  0.3664E+02
     -7.350  0.9364E+01  0.3677E+02
     -7.337  0.5688E+01  0.3685E+02
     -7.323  0.6570E+01  0.3694E+02
     -7.309  0.6753E+01  0.3703E+02
     -7.295  0.1205E+01  0.3705E+02
     -7.282  0.2520E+01  0.3708E+02
     -7.268  0.5451E+01  0.3716E+02
     -7.254  0.8394E+01  0.3727E+02
     -7.240  0.4542E+01  0.3733E+02
     -7.226  0.4020E+01  0.3739E+02
     -7.213  0.4835E+01  0.3746E+02
     -7.199  0.2987E+01  0.3750E+02
     -7.185  0.3362E+01  0.3754E+02
     -7.171  0.3548E+01  0.3759E+02
     -7.157  0.3766E+01  0.3764E+02
     -7.144  0.3093E+01  0.3769E+02
     -7.130  0.4975E+01  0.3776E+02
     -7.116  0.2552E+01  0.3779E+02
     -7.102  0.1322E+00  0.3779E+02
     -7.089  0.1719E+01  0.3782E+02
     -7.075  0.3961E+01  0.3787E+02
     -7.061  0.4355E+01  0.3793E+02
     -7.047  0.4660E+01  0.3800E+02
     -7.033  0.3344E+00  0.3800E+02
     -7.020  0.9729E+00  0.3801E+02
     -7.006  0.7768E+01  0.3812E+02
     -6.992  0.7261E+01  0.3822E+02
     -6.978  0.2343E+01  0.3825E+02
     -6.965  0.3673E+01  0.3830E+02
     -6.951  0.5086E+01  0.3837E+02
     -6.937  0.5286E+01  0.3845E+02
     -6.923  0.1022E+01  0.3846E+02
     -6.909  0.3909E+01  0.3851E+02
     -6.896  0.4321E+01  0.3857E+02
     -6.882  0.6175E+00  0.3858E+02
     -6.868  0.1557E+01  0.3860E+02
     -6.854  0.3678E+01  0.3865E+02
     -6.840  0.5922E+01  0.3874E+02
     -6.827  0.2931E+01  0.3878E+02
     -6.813  0.5401E+01  0.3885E+02
     -6.799  0.4137E+01  0.3891E+02
     -6.785  0.2944E+01  0.3895E+02
     -6.772  0.5691E+01  0.3903E+02
     -6.758  0.1596E+01  0.3905E+02
     -6.744  0.4018E+01  0.3910E+02
     -6.730  0.1206E+01  0.3912E+02
     -6.716  0.1787E+01  0.3915E+02
     -6.703  0.7801E+01  0.3925E+02
     -6.689  0.2416E+01  0.3929E+02
     -6.675  0.4093E-01  0.3929E+02
     -6.661  0.1430E-02  0.3929E+02
     -6.648  0.2600E+00  0.3929E+02
     -6.634  0.1913E+01  0.3932E+02
     -6.620  0.8624E+00  0.3933E+02
     -6.606  0.1742E+01  0.3935E+02
     -6.592  0.6944E+01  0.3945E+02
     -6.579  0.1025E+02  0.3959E+02
     -6.565  0.8053E+01  0.3970E+02
     -6.551  0.7184E+01  0.3980E+02
     -6.537  0.4966E+01  0.3987E+02
     -6.523  0.2869E+01  0.3991E+02
     -6.510  0.1838E+00  0.3991E+02
     -6.496  0.1243E+01  0.3993E+02
     -6.482  0.4509E+01  0.3999E+02
     -6.468  0.6590E+01  0.4008E+02
     -6.455  0.6882E+01  0.4018E+02
     -6.441  0.2046E+01  0.4020E+02
     -6.427  0.3322E+01  0.4025E+02
     -6.413  0.2393E+01  0.4028E+02
     -6.399  0.8999E-01  0.4028E+02
     -6.386  0.1157E-03  0.4028E+02
     -6.372  0.5433E-02  0.4028E+02
     -6.358  0.5013E+00  0.4029E+02
     -6.344  0.2022E+01  0.4032E+02
     -6.330  0.9789E+00  0.4033E+02
     -6.317  0.3804E+01  0.4038E+02
     -6.303  0.1701E+01  0.4041E+02
     -6.289  0.1037E+01  0.4042E+02
     -6.275  0.4039E+01  0.4048E+02
     -6.262  0.1093E+01  0.4049E+02
     -6.248  0.1674E+01  0.4052E+02
     -6.234  0.1962E+01  0.4054E+02
     -6.220  0.1984E+01  0.4057E+02
     -6.206  0.3127E+00  0.4057E+02
     -6.193  0.1768E+01  0.4060E+02
     -6.179  0.9132E+01  0.4072E+02
     -6.165  0.4339E+01  0.4078E+02
     -6.151  0.3545E+01  0.4083E+02
     -6.138  0.2358E+01  0.4087E+02
     -6.124  0.4478E+01  0.4093E+02
     -6.110  0.1202E+02  0.4109E+02
     -6.096  0.1420E+02  0.4129E+02
     -6.082  0.9920E+01  0.4143E+02
     -6.069  0.1463E+01  0.4145E+02
     -6.055  0.1940E-01  0.4145E+02
     -6.041  0.8801E-05  0.4145E+02
     -6.027  0.2839E-04  0.4145E+02
     -6.013  0.2989E-01  0.4145E+02
     -6.000  0.1031E+01  0.4146E+02
     -5.986  0.1831E+01  0.4149E+02
     -5.972  0.2260E+01  0.4152E+02
     -5.958  0.6617E+01  0.4161E+02
     -5.945  0.7765E+01  0.4172E+02
     -5.931  0.3662E+01  0.4177E+02
     -5.917  0.3356E+01  0.4181E+02
     -5.903  0.3778E+01  0.4186E+02
     -5.889  0.2445E+01  0.4190E+02
     -5.876  0.3485E+01  0.4195E+02
     -5.862  0.2766E+01  0.4198E+02
     -5.848  0.1562E+00  0.4199E+02
     -5.834  0.1244E+01  0.4200E+02
     -5.821  0.4223E+01  0.4206E+02
     -5.807  0.2686E+01  0.4210E+02
     -5.793  0.2054E+01  0.4213E+02
     -5.779  0.5948E+01  0.4221E+02
     -5.765  0.9465E+01  0.4234E+02
     -5.752  0.4370E+01  0.4240E+02
     -5.738  0.8732E+00  0.4241E+02
     -5.724  0.1954E+01  0.4244E+02
     -5.710  0.3610E+00  0.4244E+02
     -5.696  0.2634E+01  0.4248E+02
     -5.683  0.7531E+01  0.4258E+02
     -5.669  0.2281E+01  0.4262E+02
     -5.655  0.3819E+01  0.4267E+02
     -5.641  0.3574E+01  0.4272E+02
     -5.628  0.3762E+01  0.4277E+02
     -5.614  0.4543E+00  0.4278E+02
     -5.600  0.1173E+01  0.4279E+02
     -5.586  0.6937E+01  0.4289E+02
     -5.572  0.7204E+01  0.4299E+02
     -5.559  0.2780E+01  0.4302E+02
     -5.545  0.3590E+01  0.4307E+02
     -5.531  0.2322E+01  0.4311E+02
     -5.517  0.8253E-01  0.4311E+02
     -5.504  0.1038E-03  0.4311E+02
     -5.490  0.1671E-01  0.4311E+02
     -5.476  0.1824E+01  0.4313E+02
     -5.462  0.1199E+02  0.4330E+02
     -5.448  0.7400E+01  0.4340E+02
     -5.435  0.4055E+01  0.4346E+02
     -5.421  0.1783E+01  0.4348E+02
     -5.407  0.4208E-01  0.4348E+02
     -5.393  0.2113E+00  0.4348E+02
     -5.379  0.1851E+01  0.4351E+02
     -5.366  0.1745E+01  0.4353E+02
     -5.352  0.6702E+01  0.4363E+02
     -5.338  0.6051E+01  0.4371E+02
     -5.324  0.7909E+01  0.4382E+02
     -5.311  0.2592E+01  0.4385E+02
     -5.297  0.5041E-01  0.4385E+02
     -5.283  0.5685E-02  0.4385E+02
     -5.269  0.5105E+00  0.4386E+02
     -5.255  0.2101E+01  0.4389E+02
     -5.242  0.1931E+01  0.4392E+02
     -5.228  0.1430E+01  0.4394E+02
     -5.214  0.1527E+01  0.4396E+02
     -5.200  0.4004E+01  0.4401E+02
     -5.187  0.2119E+01  0.4404E+02
     -5.173  0.3501E+01  0.4409E+02
     -5.159  0.6871E+01  0.4419E+02
     -5.145  0.9086E+01  0.4431E+02
     -5.131  0.5745E+01  0.4439E+02
     -5.118  0.4552E+00  0.4440E+02
     -5.104  0.2719E+01  0.4443E+02
     -5.090  0.4337E+01  0.4449E+02
     -5.076  0.1865E+01  0.4452E+02
     -5.062  0.2676E+01  0.4456E+02
     -5.049  0.3133E+01  0.4460E+02
     -5.035  0.2203E+00  0.4460E+02
     -5.021  0.9500E+00  0.4462E+02
     -5.007  0.4785E+01  0.4468E+02
     -4.994  0.7955E+01  0.4479E+02
     -4.980  0.7098E+01  0.4489E+02
     -4.966  0.5827E+01  0.4497E+02
     -4.952  0.6412E+01  0.4506E+02
     -4.938  0.2806E+01  0.4510E+02
     -4.925  0.2567E+01  0.4513E+02
     -4.911  0.3466E+01  0.4518E+02
     -4.897  0.1236E+01  0.4520E+02
     -4.883  0.7662E+01  0.4530E+02
     -4.870  0.1749E+02  0.4554E+02
     -4.856  0.6819E+01  0.4564E+02
     -4.842  0.3052E+00  0.4564E+02
     -4.828  0.2758E+01  0.4568E+02
     -4.814  0.6961E+01  0.4578E+02
     -4.801  0.4727E+01  0.4584E+02
     -4.787  0.3712E+01  0.4589E+02
     -4.773  0.5438E+01  0.4597E+02
     -4.759  0.3713E+01  0.4602E+02
     -4.745  0.7904E+01  0.4613E+02
     -4.732  0.5773E+01  0.4621E+02
     -4.718  0.3765E+01  0.4626E+02
     -4.704  0.7685E+00  0.4627E+02
     -4.690  0.2022E+01  0.4630E+02
     -4.677  0.1873E+01  0.4632E+02
     -4.663  0.6956E+01  0.4642E+02
     -4.649  0.5687E+01  0.4650E+02
     -4.635  0.4845E+01  0.4656E+02
     -4.621  0.9290E+01  0.4669E+02
     -4.608  0.7884E+01  0.4680E+02
     -4.594  0.4822E+01  0.4687E+02
     -4.580  0.2122E+01  0.4690E+02
     -4.566  0.2899E+00  0.4690E+02
     -4.553  0.4503E-01  0.4690E+02
     -4.539  0.2026E+01  0.4693E+02
     -4.525  0.8336E+01  0.4704E+02
     -4.511  0.9983E+01  0.4718E+02
     -4.497  0.3562E+01  0.4723E+02
     -4.484  0.1109E+01  0.4725E+02
     -4.470  0.6324E+01  0.4733E+02
     -4.456  0.7110E+01  0.4743E+02
     -4.442  0.5233E+01  0.4750E+02
     -4.428  0.4172E+01  0.4756E+02
     -4.415  0.1890E+01  0.4759E+02
     -4.401  0.5195E+01  0.4766E+02
     -4.387  0.1310E+02  0.4784E+02
     -4.373  0.9326E+01  0.4797E+02
     -4.360  0.8803E+01  0.4809E+02
     -4.346  0.1110E+02  0.4824E+02
     -4.332  0.9703E+01  0.4837E+02
     -4.318  0.5340E+01  0.4845E+02
     -4.304  0.5146E+01  0.4852E+02
     -4.291  0.2682E+01  0.4856E+02
     -4.277  0.3197E+00  0.4856E+02
     -4.263  0.5185E+00  0.4857E+02
     -4.249  0.3886E+01  0.4862E+02
     -4.235  0.3768E+01  0.4867E+02
     -4.222  0.4000E+01  0.4873E+02
     -4.208  0.5286E+01  0.4880E+02
     -4.194  0.5831E+01  0.4888E+02
     -4.180  0.1201E+01  0.4890E+02
     -4.167  0.4425E+01  0.4896E+02
     -4.153  0.4342E+01  0.4902E+02
     -4.139  0.5333E+01  0.4909E+02
     -4.125  0.5975E+01  0.4917E+02
     -4.111  0.9568E+00  0.4919E+02
     -4.098  0.2006E+01  0.4922E+02
     -4.084  0.2228E+01  0.4925E+02
     -4.070  0.5215E+01  0.4932E+02
     -4.056  0.2162E+01  0.4935E+02
     -4.043  0.1071E+00  0.4935E+02
     -4.029  0.5425E-01  0.4935E+02
     -4.015  0.1774E+01  0.4937E+02
     -4.001  0.5405E+01  0.4945E+02
     -3.987  0.1768E+01  0.4947E+02
     -3.974  0.3589E-01  0.4947E+02
     -3.960  0.9664E-01  0.4948E+02
     -3.946  0.2454E+01  0.4951E+02
     -3.932  0.3550E+01  0.4956E+02
     -3.918  0.3715E+01  0.4961E+02
     -3.905  0.3269E+01  0.4965E+02
     -3.891  0.4100E+01  0.4971E+02
     -3.877  0.8877E+00  0.4972E+02
     -3.863  0.5003E+00  0.4973E+02
     -3.850  0.2040E+01  0.4976E+02
     -3.836  0.1402E+01  0.4978E+02
     -3.822  0.2770E+01  0.4982E+02
     -3.808  0.2106E+01  0.4984E+02
     -3.794  0.1429E+01  0.4986E+02
     -3.781  0.9305E+01  0.4999E+02
     -3.767  0.7446E+01  0.5010E+02
     -3.753  0.6547E+01  0.5019E+02
     -3.739  0.3939E+01  0.5024E+02
     -3.726  0.5004E+01  0.5031E+02
     -3.712  0.4582E+01  0.5037E+02
     -3.698  0.1328E+01  0.5039E+02
     -3.684  0.1964E+01  0.5042E+02
     -3.670  0.2522E+01  0.5045E+02
     -3.657  0.1301E+01  0.5047E+02
     -3.643  0.1165E+01  0.5049E+02
     -3.629  0.7044E+01  0.5058E+02
     -3.615  0.6776E+01  0.5068E+02
     -3.601  0.4886E+01  0.5074E+02
     -3.588  0.1243E+01  0.5076E+02
     -3.574  0.1956E-01  0.5076E+02
     -3.560  0.6818E-02  0.5076E+02
     -3.546  0.5591E+00  0.5077E+02
     -3.533  0.2423E+01  0.5080E+02
     -3.519  0.2442E+01  0.5084E+02
     -3.505  0.8693E+00  0.5085E+02
     -3.491  0.2270E+01  0.5088E+02
     -3.477  0.2343E+01  0.5091E+02
     -3.464  0.1992E+01  0.5094E+02
     -3.450  0.3501E+01  0.5099E+02
     -3.436  0.3007E+01  0.5103E+02
     -3.422  0.1728E+00  0.5103E+02
     -3.409  0.6774E+00  0.5104E+02
     -3.395  0.4089E+01  0.5110E+02
     -3.381  0.3022E+01  0.5114E+02
     -3.367  0.1202E+01  0.5116E+02
     -3.353  0.9583E-01  0.5116E+02
     -3.340  0.1266E+01  0.5117E+02
     -3.326  0.2207E+01  0.5120E+02
     -3.312  0.4934E+01  0.5127E+02
     -3.298  0.5047E+01  0.5134E+02
     -3.284  0.2052E+01  0.5137E+02
     -3.271  0.3054E+01  0.5141E+02
     -3.257  0.1029E+02  0.5155E+02
     -3.243  0.1319E+02  0.5174E+02
     -3.229  0.5976E+01  0.5182E+02
     -3.216  0.2981E+01  0.5186E+02
     -3.202  0.1643E+00  0.5186E+02
     -3.188  0.3265E-03  0.5186E+02
     -3.174  0.9378E-04  0.5186E+02
     -3.160  0.5999E-01  0.5186E+02
     -3.147  0.1322E+01  0.5188E+02
     -3.133  0.2031E+01  0.5191E+02
     -3.119  0.3901E+01  0.5196E+02
     -3.105  0.2200E+01  0.5199E+02
     -3.092  0.2055E+01  0.5202E+02
     -3.078  0.4766E+00  0.5203E+02
     -3.064  0.4872E-02  0.5203E+02
     -3.050  0.2436E-05  0.5203E+02
     -3.036  0.3641E-02  0.5203E+02
     -3.023  0.4170E+00  0.5203E+02
     -3.009  0.2389E+01  0.5207E+02
     -2.995  0.4189E+01  0.5212E+02
     -2.981  0.2005E+01  0.5215E+02
     -2.967  0.1370E+01  0.5217E+02
     -2.954  0.3982E+01  0.5223E+02
     -2.940  0.1258E+01  0.5224E+02
     -2.926  0.2100E+01  0.5227E+02
     -2.912  0.2728E+01  0.5231E+02
     -2.899  0.3378E+01  0.5236E+02
     -2.885  0.2799E+00  0.5236E+02
     -2.871  0.8605E-03  0.5236E+02
     -2.857  0.3199E-05  0.5236E+02
     -2.843  0.1016E-01  0.5236E+02
     -2.830  0.1081E+01  0.5237E+02
     -2.816  0.7782E+01  0.5248E+02
     -2.802  0.8227E+01  0.5260E+02
     -2.788  0.9696E+00  0.5261E+02
     -2.775  0.6080E-02  0.5261E+02
     -2.761  0.5309E-01  0.5261E+02
     -2.747  0.1970E+01  0.5264E+02
     -2.733  0.3619E+01  0.5269E+02
     -2.719  0.3894E+00  0.5269E+02
     -2.706  0.1226E+01  0.5271E+02
     -2.692  0.8789E+01  0.5283E+02
     -2.678  0.7255E+01  0.5293E+02
     -2.664  0.4844E+01  0.5300E+02
     -2.650  0.4248E+01  0.5306E+02
     -2.637  0.7396E+00  0.5307E+02
     -2.623  0.6109E-02  0.5307E+02
     -2.609  0.1358E+00  0.5307E+02
     -2.595  0.1675E+01  0.5309E+02
     -2.582  0.1160E+01  0.5311E+02
     -2.568  0.4634E-01  0.5311E+02
     -2.554  0.4860E+00  0.5311E+02
     -2.540  0.2019E+01  0.5314E+02
     -2.526  0.4988E+00  0.5315E+02
     -2.513  0.2888E+00  0.5315E+02
     -2.499  0.1938E+01  0.5318E+02
     -2.485  0.7775E+00  0.5319E+02
     -2.471  0.5015E+00  0.5320E+02
     -2.457  0.4871E+01  0.5326E+02
     -2.444  0.3765E+01  0.5332E+02
     -2.430  0.2424E+01  0.5335E+02
     -2.416  0.4275E+01  0.5341E+02
     -2.402  0.2192E+01  0.5344E+02
     -2.389  0.9939E+00  0.5345E+02
     -2.375  0.4036E+01  0.5351E+02
     -2.361  0.1048E+01  0.5352E+02
     -2.347  0.7365E+00  0.5353E+02
     -2.333  0.3984E+01  0.5359E+02
     -2.320  0.1292E+01  0.5361E+02
     -2.306  0.1911E-01  0.5361E+02
     -2.292  0.5247E-03  0.5361E+02
     -2.278  0.1543E+00  0.5361E+02
     -2.265  0.1727E+01  0.5363E+02
     -2.251  0.1096E+01  0.5365E+02
     -2.237  0.3723E-01  0.5365E+02
     -2.223  0.4397E+00  0.5365E+02
     -2.209  0.3719E+01  0.5370E+02
     -2.196  0.1821E+01  0.5373E+02
     -2.182  0.4338E-01  0.5373E+02
     -2.168  0.2394E-02  0.5373E+02
     -2.154  0.3369E+00  0.5373E+02
     -2.140  0.1979E+01  0.5376E+02
     -2.127  0.7990E+00  0.5377E+02
     -2.113  0.2496E+01  0.5381E+02
     -2.099  0.6670E+01  0.5390E+02
     -2.085  0.5106E+01  0.5397E+02
     -2.072  0.1419E+01  0.5399E+02
     -2.058  0.2140E+01  0.5402E+02
     -2.044  0.3778E+01  0.5407E+02
     -2.030  0.4805E+01  0.5414E+02
     -2.016  0.6589E+00  0.5415E+02
     -2.003  0.1384E+01  0.5417E+02
     -1.989  0.1956E+01  0.5419E+02
     -1.975  0.3859E+01  0.5425E+02
     -1.961  0.1735E+01  0.5427E+02
     -1.948  0.3844E-01  0.5427E+02
     -1.934  0.2744E-04  0.5427E+02
     -1.920  0.1059E-02  0.5427E+02
     -1.906  0.1297E+00  0.5427E+02
     -1.892  0.6676E+00  0.5428E+02
     -1.879  0.2031E+00  0.5428E+02
     -1.865  0.1865E-01  0.5428E+02
     -1.851  0.1190E+01  0.5430E+02
     -1.837  0.4012E+01  0.5436E+02
     -1.823  0.8000E+00  0.5437E+02
     -1.810  0.6725E-02  0.5437E+02
     -1.796  0.7100E-03  0.5437E+02
     -1.782  0.1866E+00  0.5437E+02
     -1.768  0.2427E+01  0.5440E+02
     -1.755  0.4939E+01  0.5447E+02
     -1.741  0.1485E+01  0.5449E+02
     -1.727  0.1472E+01  0.5451E+02
     -1.713  0.3924E+01  0.5457E+02
     -1.699  0.6248E+00  0.5457E+02
     -1.686  0.4051E-02  0.5457E+02
     -1.672  0.8163E-05  0.5457E+02
     -1.658  0.1727E-01  0.5457E+02
     -1.644  0.1236E+01  0.5459E+02
     -1.631  0.4008E+01  0.5465E+02
     -1.617  0.1343E+01  0.5467E+02
     -1.603  0.2024E+01  0.5469E+02
     -1.589  0.1270E+01  0.5471E+02
     -1.575  0.4030E+01  0.5477E+02
     -1.562  0.1120E+01  0.5478E+02
     -1.548  0.4883E-01  0.5478E+02
     -1.534  0.1669E+01  0.5481E+02
     -1.520  0.3812E+01  0.5486E+02
     -1.506  0.8127E+00  0.5487E+02
     -1.493  0.3449E+01  0.5492E+02
     -1.479  0.2201E+01  0.5495E+02
     -1.465  0.7130E-01  0.5495E+02
     -1.451  0.7651E-04  0.5495E+02
     -1.438  0.2185E-08  0.5495E+02
     -1.424  0.1505E-14  0.5495E+02
     -1.410  0.3714E-09  0.5495E+02
     -1.396  0.1890E-04  0.5495E+02
     -1.382  0.2772E-01  0.5495E+02
     -1.369  0.1702E+01  0.5497E+02
     -1.355  0.9089E+01  0.5510E+02
     -1.341  0.6738E+01  0.5519E+02
     -1.327  0.5391E+00  0.5520E+02
     -1.314  0.9277E+00  0.5521E+02
     -1.300  0.1850E+01  0.5524E+02
     -1.286  0.2136E+00  0.5524E+02
     -1.272  0.1114E-02  0.5524E+02
     -1.258  0.8042E-01  0.5524E+02
     -1.245  0.1448E+01  0.5526E+02
     -1.231  0.1410E+01  0.5528E+02
     -1.217  0.1219E+00  0.5528E+02
     -1.203  0.1752E+01  0.5531E+02
     -1.189  0.3691E+01  0.5536E+02
     -1.176  0.5380E+00  0.5536E+02
     -1.162  0.7996E+00  0.5537E+02
     -1.148  0.4011E+01  0.5543E+02
     -1.134  0.1195E+01  0.5545E+02
     -1.121  0.1602E-01  0.5545E+02
     -1.107  0.6558E-05  0.5545E+02
     -1.093  0.7117E-10  0.5545E+02
     -1.079  0.3811E-06  0.5545E+02
     -1.065  0.2025E-02  0.5545E+02
     -1.052  0.3124E+00  0.5545E+02
     -1.038  0.1962E+01  0.5548E+02
     -1.024  0.7613E+00  0.5549E+02
     -1.010  0.1132E+01  0.5550E+02
     -0.997  0.1708E+01  0.5553E+02
     -0.983  0.1589E+00  0.5553E+02
     -0.969  0.7087E+00  0.5554E+02
     -0.955  0.1969E+01  0.5557E+02
     -0.941  0.3219E+00  0.5557E+02
     -0.928  0.5599E-01  0.5557E+02
     -0.914  0.1981E+01  0.5560E+02
     -0.900  0.3611E+01  0.5565E+02
     -0.886  0.3778E+00  0.5565E+02
     -0.872  0.1566E-02  0.5565E+02
     -0.859  0.4335E-01  0.5565E+02
     -0.845  0.1181E+01  0.5567E+02
     -0.831  0.1657E+01  0.5569E+02
     -0.817  0.1353E+00  0.5570E+02
     -0.804  0.4794E+00  0.5570E+02
     -0.790  0.2019E+01  0.5573E+02
     -0.776  0.5042E+00  0.5574E+02
     -0.762  0.5502E-02  0.5574E+02
     -0.748  0.1806E-05  0.5574E+02
     -0.735  0.1522E-10  0.5574E+02
     -0.721  0.0000E+00  0.5574E+02
     -0.707  0.0000E+00  0.5574E+02
     -0.693  0.1334E-09  0.5574E+02
     -0.680  0.1050E-04  0.5574E+02
     -0.666  0.2147E-01  0.5574E+02
     -0.652  0.1360E+01  0.5576E+02
     -0.638  0.4037E+01  0.5581E+02
     -0.624  0.2108E+01  0.5584E+02
     -0.611  0.1434E+01  0.5586E+02
     -0.597  0.7711E-01  0.5586E+02
     -0.583  0.1459E-03  0.5586E+02
     -0.569  0.7519E-08  0.5586E+02
     -0.555  0.9365E-14  0.5586E+02
     -0.542  0.0000E+00  0.5586E+02
     -0.528  0.0000E+00  0.5586E+02
     -0.514  0.0000E+00  0.5586E+02
     -0.500  0.0000E+00  0.5586E+02
     -0.487  0.1276E-09  0.5586E+02
     -0.473  0.8901E-05  0.5586E+02
     -0.459  0.1749E-01  0.5586E+02
     -0.445  0.1229E+01  0.5588E+02
     -0.431  0.4590E+01  0.5594E+02
     -0.418  0.1179E+01  0.5596E+02
     -0.404  0.1406E+00  0.5596E+02
     -0.390  0.1640E+01  0.5598E+02
     -0.376  0.1201E+01  0.5600E+02
     -0.362  0.4551E-01  0.5600E+02
     -0.349  0.5806E-04  0.5600E+02
     -0.335  0.9844E-08  0.5600E+02
     -0.321  0.1504E-03  0.5600E+02
     -0.307  0.7844E-01  0.5600E+02
     -0.294  0.1437E+01  0.5602E+02
     -0.280  0.1421E+01  0.5604E+02
     -0.266  0.7575E-01  0.5604E+02
     -0.252  0.1414E-03  0.5604E+02
     -0.238  0.7181E-08  0.5604E+02
     -0.225  0.9031E-14  0.5604E+02
     -0.211  0.0000E+00  0.5604E+02
     -0.197  0.0000E+00  0.5604E+02
     -0.183  0.8362E-16  0.5604E+02
     -0.170  0.1345E-09  0.5604E+02
     -0.156  0.5153E-05  0.5604E+02
     -0.142  0.5240E-02  0.5604E+02
     -0.128  0.1751E+00  0.5604E+02
     -0.114  0.2936E+00  0.5605E+02
     -0.101  0.2806E-01  0.5605E+02
     -0.087  0.1013E-03  0.5605E+02
     -0.073  0.1059E-07  0.5605E+02
     -0.059  0.1606E-04  0.5605E+02
     -0.045  0.2126E-01  0.5605E+02
     -0.032  0.9031E+00  0.5606E+02
     -0.018  0.1864E+01  0.5609E+02
     -0.004  0.2229E+00  0.5609E+02
      0.010  0.1072E-02  0.5609E+02
      0.023  0.3237E-01  0.5609E+02
      0.037  0.1062E+01  0.5611E+02
      0.051  0.1753E+01  0.5613E+02
      0.065  0.2620E+00  0.5613E+02
      0.079  0.1532E+01  0.5615E+02
      0.092  0.1323E+01  0.5617E+02
      0.106  0.6050E-01  0.5617E+02
      0.120  0.1026E-03  0.5617E+02
      0.134  0.1330E-01  0.5617E+02
      0.147  0.7449E+00  0.5618E+02
      0.161  0.1952E+01  0.5621E+02
      0.175  0.3002E+00  0.5621E+02
      0.189  0.1870E-02  0.5621E+02
      0.203  0.3319E-02  0.5621E+02
      0.216  0.3975E+00  0.5622E+02
      0.230  0.2006E+01  0.5625E+02
      0.244  0.9065E+00  0.5626E+02
      0.258  0.4629E+01  0.5632E+02
      0.272  0.3926E+01  0.5638E+02
      0.285  0.1823E+00  0.5638E+02
      0.299  0.1186E-02  0.5638E+02
      0.313  0.2047E+00  0.5638E+02
      0.327  0.1953E+01  0.5641E+02
      0.340  0.3573E+01  0.5646E+02
      0.354  0.3107E+01  0.5650E+02
      0.368  0.2181E+00  0.5651E+02
      0.382  0.1147E+01  0.5652E+02
      0.396  0.5800E+01  0.5660E+02
      0.409  0.6239E+01  0.5669E+02
      0.423  0.1819E+01  0.5671E+02
      0.437  0.3908E-01  0.5671E+02
      0.451  0.1258E-02  0.5671E+02
      0.464  0.3388E+00  0.5672E+02
      0.478  0.3528E+01  0.5677E+02
      0.492  0.2103E+01  0.5680E+02
      0.506  0.6792E+00  0.5680E+02
      0.520  0.2029E+01  0.5683E+02
      0.533  0.1898E+01  0.5686E+02
      0.547  0.3883E+01  0.5691E+02
      0.561  0.6336E+00  0.5692E+02
      0.575  0.1682E+01  0.5694E+02
      0.589  0.3806E+01  0.5700E+02
      0.602  0.5030E+00  0.5700E+02
      0.616  0.2901E-02  0.5700E+02
      0.630  0.1087E+00  0.5700E+02
      0.644  0.1579E+01  0.5703E+02
      0.657  0.1272E+01  0.5704E+02
      0.671  0.3437E+00  0.5705E+02
      0.685  0.3404E+01  0.5710E+02
      0.699  0.2254E+01  0.5713E+02
      0.713  0.1369E+00  0.5713E+02
      0.726  0.2074E+01  0.5716E+02
      0.740  0.3543E+01  0.5721E+02
      0.754  0.3455E+00  0.5721E+02
      0.768  0.1372E-02  0.5721E+02
      0.781  0.6160E-01  0.5721E+02
      0.795  0.1610E+01  0.5723E+02
      0.809  0.4919E+01  0.5730E+02
      0.823  0.2377E+01  0.5733E+02
      0.837  0.9091E+00  0.5735E+02
      0.850  0.4021E+01  0.5740E+02
      0.864  0.1151E+01  0.5742E+02
      0.878  0.1473E-01  0.5742E+02
      0.892  0.1999E-02  0.5742E+02
      0.906  0.4840E+00  0.5743E+02
      0.919  0.5677E+01  0.5750E+02
      0.933  0.5877E+01  0.5758E+02
      0.947  0.4107E+01  0.5764E+02
      0.961  0.1906E+01  0.5767E+02
      0.974  0.1467E+01  0.5769E+02
      0.988  0.3936E+01  0.5774E+02
      1.002  0.8645E+00  0.5775E+02
      1.016  0.3930E+01  0.5781E+02
      1.030  0.6580E+01  0.5790E+02
      1.043  0.1564E+01  0.5792E+02
      1.057  0.3344E+01  0.5797E+02
      1.071  0.2352E+01  0.5800E+02
      1.085  0.8568E-01  0.5800E+02
      1.098  0.1047E-03  0.5800E+02
      1.112  0.3822E-08  0.5800E+02
      1.126  0.1887E-04  0.5800E+02
      1.140  0.2347E-01  0.5800E+02
      1.154  0.9756E+00  0.5801E+02
      1.167  0.2960E+01  0.5805E+02
      1.181  0.2159E+01  0.5808E+02
      1.195  0.2038E+01  0.5811E+02
      1.209  0.8627E+00  0.5812E+02
      1.223  0.2401E-01  0.5812E+02
      1.236  0.3008E+00  0.5813E+02
      1.250  0.2904E+01  0.5817E+02
      1.264  0.1027E+02  0.5831E+02
      1.278  0.5374E+01  0.5838E+02
      1.291  0.1774E+01  0.5841E+02
      1.305  0.3896E+01  0.5846E+02
      1.319  0.1393E+01  0.5848E+02
      1.333  0.4019E+01  0.5854E+02
      1.347  0.1238E+01  0.5855E+02
      1.360  0.2114E+01  0.5858E+02
      1.374  0.3665E+01  0.5863E+02
      1.388  0.3172E+01  0.5868E+02
      1.402  0.4478E+01  0.5874E+02
      1.415  0.3637E+01  0.5879E+02
      1.429  0.4476E+01  0.5885E+02
      1.443  0.1472E+01  0.5887E+02
      1.457  0.2771E+01  0.5891E+02
      1.471  0.2657E+01  0.5895E+02
      1.484  0.2819E+01  0.5899E+02
      1.498  0.3130E+01  0.5903E+02
      1.512  0.1957E+01  0.5906E+02
      1.526  0.1214E+01  0.5907E+02
      1.540  0.4673E-01  0.5907E+02
      1.553  0.3321E-02  0.5907E+02
      1.567  0.5660E+00  0.5908E+02
      1.581  0.4375E+01  0.5914E+02
      1.595  0.3584E+01  0.5919E+02
      1.608  0.9995E+00  0.5920E+02
      1.622  0.5615E+01  0.5928E+02
      1.636  0.1002E+02  0.5942E+02
      1.650  0.7631E+01  0.5952E+02
      1.664  0.3218E+01  0.5957E+02
      1.677  0.1027E+01  0.5958E+02
      1.691  0.1884E+01  0.5961E+02
      1.705  0.2623E+00  0.5961E+02
      1.719  0.1787E+01  0.5964E+02
      1.733  0.8447E+01  0.5975E+02
      1.746  0.4590E+01  0.5982E+02
      1.760  0.2136E+00  0.5982E+02
      1.774  0.1050E+00  0.5982E+02
      1.788  0.1563E+01  0.5984E+02
      1.801  0.1448E+01  0.5986E+02
      1.815  0.3481E+01  0.5991E+02
      1.829  0.4882E+01  0.5998E+02
      1.843  0.5675E+00  0.5999E+02
      1.857  0.4898E-01  0.5999E+02
      1.870  0.1849E+01  0.6001E+02
      1.884  0.3731E+01  0.6006E+02
      1.898  0.1461E+01  0.6008E+02
      1.912  0.2282E+01  0.6012E+02
      1.925  0.2195E+01  0.6015E+02
      1.939  0.4828E+00  0.6015E+02
      1.953  0.2432E-01  0.6015E+02
      1.967  0.1406E+01  0.6017E+02
      1.981  0.5595E+01  0.6025E+02
      1.994  0.2450E+01  0.6028E+02
      2.008  0.3568E+01  0.6033E+02
      2.022  0.1953E+01  0.6036E+02
      2.036  0.7274E-01  0.6036E+02
      2.050  0.1733E+00  0.6036E+02
      2.063  0.1824E+01  0.6039E+02
      2.077  0.2515E+01  0.6042E+02
      2.091  0.2887E+01  0.6046E+02
      2.105  0.4104E+01  0.6052E+02
      2.118  0.1522E+01  0.6054E+02
      2.132  0.4322E-01  0.6054E+02
      2.146  0.8935E+00  0.6055E+02
      2.160  0.3517E+01  0.6060E+02
      2.174  0.1545E+01  0.6062E+02
      2.187  0.7913E-01  0.6062E+02
      2.201  0.1451E+01  0.6064E+02
      2.215  0.4627E+01  0.6071E+02
      2.229  0.2602E+01  0.6074E+02
      2.242  0.3852E+00  0.6075E+02
      2.256  0.2186E+01  0.6078E+02
      2.270  0.6021E+01  0.6086E+02
      2.284  0.5454E+01  0.6094E+02
      2.298  0.4074E+01  0.6099E+02
      2.311  0.3083E+00  0.6100E+02
      2.325  0.1464E+01  0.6102E+02
      2.339  0.5756E+01  0.6110E+02
      2.353  0.1775E+01  0.6112E+02
      2.367  0.1279E+01  0.6114E+02
      2.380  0.1010E+02  0.6128E+02
      2.394  0.6473E+01  0.6137E+02
      2.408  0.2458E+00  0.6137E+02
      2.422  0.3357E-03  0.6137E+02
      2.435  0.1271E-07  0.6137E+02
      2.449  0.1137E-13  0.6137E+02
      2.463  0.0000E+00  0.6137E+02
      2.477  0.0000E+00  0.6137E+02
      2.491  0.2681E-11  0.6137E+02
      2.504  0.6789E-06  0.6137E+02
      2.518  0.4381E-02  0.6137E+02
      2.532  0.8408E+00  0.6138E+02
      2.546  0.7148E+01  0.6148E+02
      2.559  0.6561E+01  0.6157E+02
      2.573  0.5554E+01  0.6165E+02
      2.587  0.3028E+01  0.6169E+02
      2.601  0.1479E+01  0.6171E+02
      2.615  0.2050E+01  0.6174E+02
      2.628  0.1251E+01  0.6175E+02
      2.642  0.3779E+01  0.6181E+02
      2.656  0.1412E+01  0.6183E+02
      2.670  0.4238E-01  0.6183E+02
      2.684  0.6413E+00  0.6184E+02
      2.697  0.1994E+01  0.6186E+02
      2.711  0.5112E+00  0.6187E+02
      2.725  0.1727E+01  0.6189E+02
      2.739  0.2174E+01  0.6192E+02
      2.752  0.3951E+01  0.6198E+02
      2.766  0.5470E+01  0.6205E+02
      2.780  0.4185E+01  0.6211E+02
      2.794  0.4592E+00  0.6212E+02
      2.808  0.1103E+01  0.6213E+02
      2.821  0.1727E+01  0.6216E+02
      2.835  0.6148E+00  0.6217E+02
      2.849  0.3312E+01  0.6221E+02
      2.863  0.9747E+01  0.6235E+02
      2.876  0.4435E+01  0.6241E+02
      2.890  0.1157E+00  0.6241E+02
      2.904  0.1057E-03  0.6241E+02
      2.918  0.7198E-03  0.6241E+02
      2.932  0.2541E+00  0.6241E+02
      2.945  0.3294E+01  0.6246E+02
      2.959  0.2624E+01  0.6249E+02
      2.973  0.3321E+01  0.6254E+02
      2.987  0.2461E+01  0.6257E+02
      3.001  0.4288E+00  0.6258E+02
      3.014  0.1975E+01  0.6261E+02
      3.028  0.6926E+00  0.6262E+02
      3.042  0.1139E-01  0.6262E+02
      3.056  0.1178E+00  0.6262E+02
      3.069  0.2628E+01  0.6265E+02
      3.083  0.3986E+01  0.6271E+02
      3.097  0.9238E+01  0.6284E+02
      3.111  0.7853E+01  0.6294E+02
      3.125  0.2951E+01  0.6298E+02
      3.138  0.4974E+01  0.6305E+02
      3.152  0.1461E+01  0.6307E+02
      3.166  0.1271E+01  0.6309E+02
      3.180  0.2037E+01  0.6312E+02
      3.193  0.2917E+01  0.6316E+02
      3.207  0.5487E+01  0.6324E+02
      3.221  0.9421E+00  0.6325E+02
      3.235  0.2364E+01  0.6328E+02
      3.249  0.6266E+01  0.6337E+02
      3.262  0.6303E+01  0.6345E+02
      3.276  0.4594E+01  0.6352E+02
      3.290  0.1375E+01  0.6354E+02
      3.304  0.8705E+00  0.6355E+02
      3.318  0.3766E+01  0.6360E+02
      3.331  0.1372E+01  0.6362E+02
      3.345  0.3193E-01  0.6362E+02
      3.359  0.1726E-03  0.6362E+02
      3.373  0.7668E-01  0.6362E+02
      3.386  0.1427E+01  0.6364E+02
      3.400  0.1449E+01  0.6366E+02
      3.414  0.9230E+00  0.6367E+02
      3.428  0.2115E+01  0.6370E+02
      3.442  0.4823E+01  0.6377E+02
      3.455  0.9246E+01  0.6390E+02
      3.469  0.6237E+01  0.6398E+02
      3.483  0.5777E+01  0.6406E+02
      3.497  0.1055E+01  0.6408E+02
      3.511  0.5913E-01  0.6408E+02
      3.524  0.2901E+01  0.6412E+02
      3.538  0.1011E+02  0.6426E+02
      3.552  0.1362E+02  0.6444E+02
      3.566  0.7778E+01  0.6455E+02
      3.579  0.4132E+01  0.6461E+02
      3.593  0.5805E+00  0.6462E+02
      3.607  0.8089E+00  0.6463E+02
      3.621  0.4221E+01  0.6469E+02
      3.635  0.5906E+01  0.6477E+02
      3.648  0.6777E+01  0.6486E+02
      3.662  0.2465E+01  0.6489E+02
      3.676  0.9238E+00  0.6491E+02
      3.690  0.1733E+01  0.6493E+02
      3.703  0.3786E+01  0.6498E+02
      3.717  0.4869E+00  0.6499E+02
      3.731  0.1704E+00  0.6499E+02
      3.745  0.2938E+01  0.6503E+02
      3.759  0.3258E+01  0.6508E+02
      3.772  0.3621E+01  0.6513E+02
      3.786  0.7423E+01  0.6523E+02
      3.800  0.3450E+01  0.6528E+02
      3.814  0.4850E+00  0.6528E+02
      3.828  0.7287E+00  0.6529E+02
      3.841  0.5677E+01  0.6537E+02
      3.855  0.5581E+01  0.6545E+02
      3.869  0.2309E+01  0.6548E+02
      3.883  0.4028E+01  0.6554E+02
      3.896  0.8220E+01  0.6565E+02
      3.910  0.7112E+01  0.6575E+02
      3.924  0.9562E+01  0.6588E+02
      3.938  0.2784E+01  0.6592E+02
      3.952  0.3456E+01  0.6597E+02
      3.965  0.8357E+01  0.6608E+02
      3.979  0.2665E+01  0.6612E+02
      3.993  0.1597E+01  0.6614E+02
      4.007  0.6971E+01  0.6624E+02
      4.020  0.8386E+01  0.6635E+02
      4.034  0.7415E+01  0.6645E+02
      4.048  0.6679E+01  0.6655E+02
      4.062  0.3748E+01  0.6660E+02
      4.076  0.2745E+01  0.6663E+02
      4.089  0.7756E+01  0.6674E+02
      4.103  0.8620E+01  0.6686E+02
      4.117  0.5367E+01  0.6693E+02
      4.131  0.9843E+00  0.6695E+02
      4.145  0.8178E+00  0.6696E+02
      4.158  0.1925E+01  0.6699E+02
      4.172  0.2712E+00  0.6699E+02
      4.186  0.1368E+00  0.6699E+02
      4.200  0.3568E+01  0.6704E+02
      4.213  0.7691E+01  0.6715E+02
      4.227  0.7502E+01  0.6725E+02
      4.241  0.2166E+01  0.6728E+02
      4.255  0.1461E+01  0.6730E+02
      4.269  0.6983E+01  0.6740E+02
      4.282  0.1115E+02  0.6755E+02
      4.296  0.7884E+01  0.6766E+02
      4.310  0.4279E+01  0.6772E+02
      4.324  0.7395E+01  0.6782E+02
      4.337  0.6844E+01  0.6791E+02
      4.351  0.3765E+01  0.6797E+02
      4.365  0.4019E+01  0.6802E+02
      4.379  0.3931E+01  0.6808E+02
      4.393  0.1105E+02  0.6823E+02
      4.406  0.6744E+01  0.6832E+02
      4.420  0.5684E+01  0.6840E+02
      4.434  0.3077E+01  0.6844E+02
      4.448  0.1450E+01  0.6846E+02
      4.462  0.5172E+01  0.6853E+02
      4.475  0.1113E+02  0.6869E+02
      4.489  0.4264E+01  0.6874E+02
      4.503  0.4166E+01  0.6880E+02
      4.517  0.1745E+01  0.6883E+02
      4.530  0.4021E+01  0.6888E+02
      4.544  0.2363E+01  0.6891E+02
      4.558  0.1816E+01  0.6894E+02
      4.572  0.2159E+01  0.6897E+02
      4.586  0.5811E+01  0.6905E+02
      4.599  0.1192E+01  0.6907E+02
      4.613  0.5082E+00  0.6907E+02
      4.627  0.2460E+01  0.6911E+02
      4.641  0.7801E+01  0.6921E+02
      4.654  0.1358E+02  0.6940E+02
      4.668  0.2982E+01  0.6944E+02
      4.682  0.4133E+01  0.6950E+02
      4.696  0.4476E+01  0.6956E+02
      4.710  0.3005E+01  0.6960E+02
      4.723  0.6551E+01  0.6969E+02
      4.737  0.5040E+01  0.6976E+02
      4.751  0.4027E+01  0.6982E+02
      4.765  0.7205E+01  0.6992E+02
      4.779  0.1474E+02  0.7012E+02
      4.792  0.9092E+01  0.7025E+02
      4.806  0.4678E+01  0.7031E+02
      4.820  0.3377E+01  0.7036E+02
      4.834  0.6592E+01  0.7045E+02
      4.847  0.9081E+01  0.7057E+02
      4.861  0.3187E+01  0.7062E+02
      4.875  0.5161E+01  0.7069E+02
      4.889  0.8129E+01  0.7080E+02
      4.903  0.2417E+01  0.7083E+02
      4.916  0.4997E+01  0.7090E+02
      4.930  0.7819E+01  0.7101E+02
      4.944  0.1146E+01  0.7103E+02
      4.958  0.1778E+01  0.7105E+02
      4.971  0.4634E+01  0.7111E+02
      4.985  0.2803E+01  0.7115E+02
      4.999  0.4596E+01  0.7122E+02
      5.013  0.5269E+01  0.7129E+02
      5.027  0.4281E+01  0.7135E+02
      5.040  0.1985E+01  0.7137E+02
      5.054  0.4283E+01  0.7143E+02
      5.068  0.1149E+02  0.7159E+02
      5.082  0.8516E+01  0.7171E+02
      5.096  0.5409E+01  0.7178E+02
      5.109  0.9537E+01  0.7192E+02
      5.123  0.7260E+01  0.7202E+02
      5.137  0.1138E+02  0.7217E+02
      5.151  0.1357E+02  0.7236E+02
      5.164  0.7079E+01  0.7246E+02
      5.178  0.7142E+01  0.7256E+02
      5.192  0.3365E+01  0.7260E+02
      5.206  0.6020E+00  0.7261E+02
      5.220  0.2663E+01  0.7265E+02
      5.233  0.5349E+01  0.7272E+02
      5.247  0.5849E+01  0.7280E+02
      5.261  0.1522E+02  0.7301E+02
      5.275  0.8042E+01  0.7312E+02
      5.288  0.1102E+02  0.7327E+02
      5.302  0.9809E+01  0.7341E+02
      5.316  0.4791E+01  0.7347E+02
      5.330  0.5358E+01  0.7355E+02
      5.344  0.6672E+01  0.7364E+02
      5.357  0.4314E+01  0.7370E+02
      5.371  0.6161E+01  0.7379E+02
      5.385  0.1932E+01  0.7381E+02
      5.399  0.1254E+00  0.7381E+02
      5.413  0.1896E+01  0.7384E+02
      5.426  0.8303E+01  0.7395E+02
      5.440  0.5541E+01  0.7403E+02
      5.454  0.5045E+01  0.7410E+02
      5.468  0.1298E+02  0.7428E+02
      5.481  0.5954E+01  0.7436E+02
      5.495  0.2737E+01  0.7440E+02
      5.509  0.4534E+01  0.7446E+02
      5.523  0.6031E+01  0.7454E+02
      5.537  0.4497E+01  0.7461E+02
      5.550  0.5603E+01  0.7468E+02
      5.564  0.3033E+01  0.7473E+02
      5.578  0.7284E+00  0.7474E+02
      5.592  0.5764E+01  0.7481E+02
      5.606  0.9361E+01  0.7494E+02
      5.619  0.1065E+02  0.7509E+02
      5.633  0.8191E+01  0.7520E+02
      5.647  0.5218E+01  0.7528E+02
      5.661  0.5764E+01  0.7535E+02
      5.674  0.1429E+02  0.7555E+02
      5.688  0.1439E+02  0.7575E+02
      5.702  0.8844E+01  0.7587E+02
      5.716  0.5349E+01  0.7595E+02
      5.730  0.9247E+01  0.7607E+02
      5.743  0.7114E+01  0.7617E+02
      5.757  0.3814E+01  0.7622E+02
      5.771  0.6654E+01  0.7632E+02
      5.785  0.2164E+01  0.7635E+02
      5.798  0.5440E-01  0.7635E+02
      5.812  0.1845E+00  0.7635E+02
      5.826  0.3144E+01  0.7639E+02
      5.840  0.7690E+01  0.7650E+02
      5.854  0.4104E+01  0.7655E+02
      5.867  0.6033E+01  0.7664E+02
      5.881  0.1162E+02  0.7680E+02
      5.895  0.7305E+01  0.7690E+02
      5.909  0.1493E+02  0.7710E+02
      5.923  0.7769E+01  0.7721E+02
      5.936  0.1015E+02  0.7735E+02
      5.950  0.5115E+01  0.7742E+02
      5.964  0.1777E+01  0.7745E+02
      5.978  0.2931E+01  0.7749E+02
      5.991  0.4660E+01  0.7755E+02
      6.005  0.6020E+01  0.7763E+02
      6.019  0.9887E+01  0.7777E+02
      6.033  0.9805E+01  0.7791E+02
      6.047  0.9460E+01  0.7804E+02
      6.060  0.4495E+01  0.7810E+02
      6.074  0.9905E+01  0.7823E+02
      6.088  0.1355E+02  0.7842E+02
      6.102  0.3553E+01  0.7847E+02
      6.115  0.7046E+01  0.7857E+02
      6.129  0.7819E+01  0.7867E+02
      6.143  0.4058E+01  0.7873E+02
      6.157  0.4058E+01  0.7879E+02
      6.171  0.1814E+01  0.7881E+02
      6.184  0.4031E+01  0.7887E+02
      6.198  0.8511E+00  0.7888E+02
      6.212  0.6685E+00  0.7889E+02
      6.226  0.5393E+01  0.7896E+02
      6.240  0.6385E+01  0.7905E+02
      6.253  0.8356E+01  0.7917E+02
      6.267  0.1209E+02  0.7933E+02
      6.281  0.5792E+01  0.7941E+02
      6.295  0.6067E+00  0.7942E+02
      6.308  0.2272E+01  0.7945E+02
      6.322  0.5560E+01  0.7953E+02
      6.336  0.5544E+01  0.7960E+02
      6.350  0.6896E+01  0.7970E+02
      6.364  0.1107E+02  0.7985E+02
      6.377  0.1099E+02  0.8000E+02
      6.391  0.9566E+01  0.8014E+02
      6.405  0.1123E+02  0.8029E+02
      6.419  0.1042E+02  0.8043E+02
      6.432  0.4418E+01  0.8049E+02
      6.446  0.2956E+00  0.8050E+02
      6.460  0.2547E+01  0.8053E+02
      6.474  0.7556E+01  0.8064E+02
      6.488  0.1868E+01  0.8066E+02
      6.501  0.3359E+00  0.8067E+02
      6.515  0.4038E+01  0.8072E+02
      6.529  0.6205E+01  0.8081E+02
      6.543  0.3898E+01  0.8086E+02
      6.557  0.9820E+01  0.8100E+02
      6.570  0.6816E+01  0.8109E+02
      6.584  0.7970E+01  0.8120E+02
      6.598  0.9026E+01  0.8133E+02
      6.612  0.3147E+01  0.8137E+02
      6.625  0.1648E+01  0.8139E+02
      6.639  0.2242E+01  0.8142E+02
      6.653  0.6512E+01  0.8151E+02
      6.667  0.6512E+01  0.8160E+02
      6.681  0.3142E+01  0.8165E+02
      6.694  0.7934E+01  0.8176E+02
      6.708  0.4418E+01  0.8182E+02
      6.722  0.7930E+01  0.8193E+02
      6.736  0.6614E+01  0.8202E+02
      6.749  0.1265E+01  0.8204E+02
      6.763  0.1691E+01  0.8206E+02
      6.777  0.4689E+01  0.8212E+02
      6.791  0.4838E+01  0.8219E+02
      6.805  0.4237E+01  0.8225E+02
      6.818  0.5317E+01  0.8232E+02
      6.832  0.6298E+01  0.8241E+02
      6.846  0.4498E+01  0.8247E+02
      6.860  0.5440E+01  0.8255E+02
      6.874  0.2339E+01  0.8258E+02
      6.887  0.4039E+01  0.8263E+02
      6.901  0.8778E+01  0.8275E+02
      6.915  0.1093E+02  0.8290E+02
      6.929  0.8255E+01  0.8302E+02
      6.942  0.2119E+01  0.8305E+02
      6.956  0.2724E+01  0.8309E+02
      6.970  0.5130E+01  0.8316E+02
      6.984  0.3050E+01  0.8320E+02
      6.998  0.2165E+01  0.8323E+02
      7.011  0.3266E+01  0.8327E+02
      7.025  0.8880E+01  0.8340E+02
      7.039  0.7655E+01  0.8350E+02
      7.053  0.7277E+01  0.8360E+02
      7.066  0.9658E+01  0.8373E+02
      7.080  0.3128E+01  0.8378E+02
      7.094  0.1158E+01  0.8379E+02
      7.108  0.1787E+01  0.8382E+02
      7.122  0.8340E+00  0.8383E+02
      7.135  0.2529E+01  0.8386E+02
      7.149  0.5230E+01  0.8394E+02
      7.163  0.1058E+02  0.8408E+02
      7.177  0.1202E+02  0.8425E+02
      7.191  0.6294E+01  0.8433E+02
      7.204  0.1010E+02  0.8447E+02
      7.218  0.1440E+02  0.8467E+02
      7.232  0.4286E+01  0.8473E+02
      7.246  0.1734E+00  0.8473E+02
      7.259  0.2800E-01  0.8473E+02
      7.273  0.1182E+01  0.8475E+02
      7.287  0.5697E+01  0.8483E+02
      7.301  0.1098E+02  0.8498E+02
      7.315  0.1075E+02  0.8513E+02
      7.328  0.9555E+01  0.8526E+02
      7.342  0.4128E+01  0.8532E+02
      7.356  0.8879E+01  0.8544E+02
      7.370  0.1034E+02  0.8558E+02
      7.383  0.9585E+01  0.8571E+02
      7.397  0.6905E+01  0.8581E+02
      7.411  0.9270E+01  0.8594E+02
      7.425  0.8125E+01  0.8605E+02
      7.439  0.1138E+02  0.8621E+02
      7.452  0.1051E+02  0.8635E+02
      7.466  0.8582E+01  0.8647E+02
      7.480  0.9061E+01  0.8659E+02
      7.494  0.8524E+01  0.8671E+02
      7.508  0.6393E+01  0.8680E+02
      7.521  0.9957E+01  0.8694E+02
      7.535  0.9270E+01  0.8706E+02
      7.549  0.1157E+02  0.8722E+02
      7.563  0.2642E+01  0.8726E+02
      7.576  0.6534E+01  0.8735E+02
      7.590  0.1094E+02  0.8750E+02
      7.604  0.4195E+01  0.8756E+02
      7.618  0.4449E+01  0.8762E+02
      7.632  0.9271E+01  0.8775E+02
      7.645  0.8747E+01  0.8787E+02
      7.659  0.3634E+01  0.8792E+02
      7.673  0.4348E+01  0.8798E+02
      7.687  0.1150E+02  0.8814E+02
      7.701  0.1375E+02  0.8833E+02
      7.714  0.1527E+02  0.8854E+02
      7.728  0.8476E+01  0.8865E+02
      7.742  0.7993E+01  0.8876E+02
      7.756  0.3908E+01  0.8882E+02
      7.769  0.5375E+01  0.8889E+02
      7.783  0.1264E+02  0.8907E+02
      7.797  0.1047E+02  0.8921E+02
      7.811  0.5814E+01  0.8929E+02
      7.825  0.3499E+01  0.8934E+02
      7.838  0.6582E+01  0.8943E+02
      7.852  0.1469E+02  0.8963E+02
      7.866  0.1446E+02  0.8983E+02
      7.880  0.6709E+01  0.8992E+02
      7.893  0.7249E+01  0.9002E+02
      7.907  0.1263E+02  0.9020E+02
      7.921  0.6912E+01  0.9029E+02
      7.935  0.3935E+01  0.9035E+02
      7.949  0.2502E+01  0.9038E+02
      7.962  0.7331E+01  0.9048E+02
      7.976  0.8930E+01  0.9061E+02
      7.990  0.4785E+01  0.9067E+02
      8.004  0.7571E+01  0.9078E+02
      8.018  0.9998E+01  0.9091E+02
      8.031  0.1276E+02  0.9109E+02
      8.045  0.1656E+02  0.9132E+02
      8.059  0.1114E+02  0.9147E+02
      8.073  0.9227E+01  0.9160E+02
      8.086  0.8884E+01  0.9172E+02
      8.100  0.1833E+01  0.9175E+02
      8.114  0.1883E+01  0.9177E+02
      8.128  0.5926E+01  0.9185E+02
      8.142  0.1660E+02  0.9208E+02
      8.155  0.1528E+02  0.9229E+02
      8.169  0.1372E+02  0.9248E+02
      8.183  0.8674E+01  0.9260E+02
      8.197  0.1168E+02  0.9276E+02
      8.210  0.1120E+02  0.9292E+02
      8.224  0.7924E+01  0.9303E+02
      8.238  0.5833E+01  0.9311E+02
      8.252  0.1528E+02  0.9332E+02
      8.266  0.1645E+02  0.9354E+02
      8.279  0.1467E+02  0.9375E+02
      8.293  0.8521E+01  0.9386E+02
      8.307  0.5737E+01  0.9394E+02
      8.321  0.7853E+01  0.9405E+02
      8.335  0.1427E+02  0.9425E+02
      8.348  0.1573E+02  0.9446E+02
      8.362  0.6771E+01  0.9456E+02
      8.376  0.4596E+01  0.9462E+02
      8.390  0.7756E+01  0.9473E+02
      8.403  0.8344E+01  0.9484E+02
      8.417  0.1829E+02  0.9510E+02
      8.431  0.1445E+02  0.9529E+02
      8.445  0.1018E+02  0.9543E+02
      8.459  0.3914E+01  0.9549E+02
      8.472  0.1187E+02  0.9565E+02
      8.486  0.1288E+02  0.9583E+02
      8.500  0.7872E+01  0.9594E+02
      8.514  0.1608E+02  0.9616E+02
      8.527  0.9480E+01  0.9629E+02
      8.541  0.6937E+01  0.9639E+02
      8.555  0.1089E+02  0.9654E+02
      8.569  0.1593E+02  0.9676E+02
      8.583  0.1350E+02  0.9694E+02
      8.596  0.1720E+02  0.9718E+02
      8.610  0.2066E+02  0.9746E+02
      8.624  0.7421E+01  0.9757E+02
      8.638  0.6138E+01  0.9765E+02
      8.652  0.3618E+01  0.9770E+02
      8.665  0.9405E+01  0.9783E+02
      8.679  0.9068E+01  0.9796E+02
      8.693  0.8258E+01  0.9807E+02
      8.707  0.9393E+01  0.9820E+02
      8.720  0.1192E+02  0.9836E+02
      8.734  0.1207E+02  0.9853E+02
      8.748  0.7247E+01  0.9863E+02
      8.762  0.2859E+01  0.9867E+02
      8.776  0.1313E+02  0.9885E+02
      8.789  0.1652E+02  0.9908E+02
      8.803  0.7893E+01  0.9919E+02
      8.817  0.1095E+02  0.9934E+02
      8.831  0.5253E+01  0.9941E+02
      8.844  0.1192E+02  0.9957E+02
      8.858  0.1089E+02  0.9972E+02
      8.872  0.1062E+02  0.9987E+02
      8.886  0.1282E+02  0.1000E+03
      8.900  0.1468E+02  0.1002E+03
      8.913  0.1622E+02  0.1005E+03
      8.927  0.1828E+02  0.1007E+03
      8.941  0.1132E+02  0.1009E+03
      8.955  0.7466E+01  0.1010E+03
      8.969  0.1028E+02  0.1011E+03
      8.982  0.9339E+01  0.1013E+03
      8.996  0.1008E+02  0.1014E+03
      9.010  0.1010E+02  0.1015E+03
      9.024  0.8880E+01  0.1017E+03
      9.037  0.3488E+01  0.1017E+03
      9.051  0.1587E+01  0.1017E+03
      9.065  0.4601E+01  0.1018E+03
      9.079  0.1176E+02  0.1019E+03
      9.093  0.1978E+02  0.1022E+03
      9.106  0.1338E+02  0.1024E+03
      9.120  0.1686E+01  0.1024E+03
      9.134  0.4847E+01  0.1025E+03
      9.148  0.1538E+02  0.1027E+03
      9.161  0.6308E+01  0.1028E+03
      9.175  0.5773E+01  0.1029E+03
      9.189  0.1544E+01  0.1029E+03
      9.203  0.3643E+01  0.1029E+03
      9.217  0.4678E+01  0.1030E+03
      9.230  0.1057E+02  0.1032E+03
      9.244  0.1433E+02  0.1034E+03
      9.258  0.1332E+02  0.1035E+03
      9.272  0.1207E+02  0.1037E+03
      9.286  0.1938E+02  0.1040E+03
      9.299  0.1298E+02  0.1042E+03
      9.313  0.1096E+02  0.1043E+03
      9.327  0.1233E+02  0.1045E+03
      9.341  0.9202E+01  0.1046E+03
      9.354  0.3488E+01  0.1046E+03
      9.368  0.2345E+01  0.1047E+03
      9.382  0.2281E+01  0.1047E+03
      9.396  0.1041E+01  0.1047E+03
      9.410  0.3356E+01  0.1048E+03
      9.423  0.1049E+02  0.1049E+03
      9.437  0.1458E+02  0.1051E+03
      9.451  0.1647E+02  0.1053E+03
      9.465  0.7099E+01  0.1054E+03
      9.479  0.6851E+01  0.1055E+03
      9.492  0.4718E+01  0.1056E+03
      9.506  0.2108E+01  0.1056E+03
      9.520  0.4313E+00  0.1056E+03
      9.534  0.3569E+01  0.1057E+03
      9.547  0.7090E+01  0.1058E+03
      9.561  0.6391E+01  0.1059E+03
      9.575  0.1003E+02  0.1060E+03
      9.589  0.1279E+02  0.1062E+03
      9.603  0.1477E+02  0.1064E+03
      9.616  0.1812E+02  0.1066E+03
      9.630  0.1120E+02  0.1068E+03
      9.644  0.5005E+01  0.1069E+03
      9.658  0.7660E+01  0.1070E+03
      9.671  0.8364E+01  0.1071E+03
      9.685  0.4521E+01  0.1071E+03
      9.699  0.7524E+01  0.1072E+03
      9.713  0.1408E+02  0.1074E+03
      9.727  0.1159E+02  0.1076E+03
      9.740  0.5182E+01  0.1077E+03
      9.754  0.2690E+01  0.1077E+03
      9.768  0.5801E+01  0.1078E+03
      9.782  0.7657E+01  0.1079E+03
      9.796  0.1218E+02  0.1081E+03
      9.809  0.7837E+01  0.1082E+03
      9.823  0.5778E+01  0.1083E+03
      9.837  0.9905E+01  0.1084E+03
      9.851  0.5904E+01  0.1085E+03
      9.864  0.7223E+01  0.1086E+03
      9.878  0.1645E+02  0.1088E+03
      9.892  0.1282E+02  0.1090E+03
      9.906  0.8973E+01  0.1091E+03
      9.920  0.7421E+01  0.1092E+03
      9.933  0.1823E+02  0.1094E+03
      9.947  0.1050E+02  0.1096E+03
      9.961  0.4845E+01  0.1097E+03
      9.975  0.5059E+01  0.1097E+03
      9.988  0.7195E+01  0.1098E+03
     10.002  0.1050E+02  0.1100E+03
     10.016  0.7623E+01  0.1101E+03
     10.030  0.5854E+01  0.1102E+03
     10.044  0.4150E+01  0.1102E+03
     10.057  0.5268E+01  0.1103E+03
     10.071  0.1140E+02  0.1104E+03
     10.085  0.7369E+01  0.1105E+03
     10.099  0.1034E+02  0.1107E+03
     10.113  0.6276E+01  0.1108E+03
     10.126  0.2068E+01  0.1108E+03
     10.140  0.3689E+01  0.1109E+03
     10.154  0.6058E+01  0.1109E+03
     10.168  0.1058E+02  0.1111E+03
     10.181  0.8771E+01  0.1112E+03
     10.195  0.8823E+01  0.1113E+03
     10.209  0.9548E+01  0.1115E+03
     10.223  0.1491E+02  0.1117E+03
     10.237  0.9579E+01  0.1118E+03
     10.250  0.9770E+01  0.1119E+03
     10.264  0.1067E+02  0.1121E+03
     10.278  0.7003E+01  0.1122E+03
     10.292  0.7074E+01  0.1123E+03
     10.305  0.7700E+01  0.1124E+03
     10.319  0.1025E+02  0.1125E+03
     10.333  0.1099E+02  0.1127E+03
     10.347  0.2754E+01  0.1127E+03
     10.361  0.1264E+01  0.1127E+03
     10.374  0.1065E+02  0.1129E+03
     10.388  0.8615E+01  0.1130E+03
     10.402  0.3475E+01  0.1130E+03
     10.416  0.1587E+02  0.1133E+03
     10.430  0.1911E+02  0.1135E+03
     10.443  0.1249E+02  0.1137E+03
     10.457  0.1058E+02  0.1138E+03
     10.471  0.9086E+01  0.1140E+03
     10.485  0.3655E+01  0.1140E+03
     10.498  0.4566E+01  0.1141E+03
     10.512  0.8318E+01  0.1142E+03
     10.526  0.1307E+02  0.1144E+03
     10.540  0.8933E+01  0.1145E+03
     10.554  0.3947E+01  0.1146E+03
     10.567  0.6130E+01  0.1146E+03
     10.581  0.1700E+02  0.1149E+03
     10.595  0.1768E+02  0.1151E+03
     10.609  0.6507E+01  0.1152E+03
     10.622  0.5594E+01  0.1153E+03
     10.636  0.1006E+02  0.1154E+03
     10.650  0.1741E+02  0.1157E+03
     10.664  0.7831E+01  0.1158E+03
     10.678  0.3543E+01  0.1158E+03
     10.691  0.6281E+01  0.1159E+03
     10.705  0.9239E+01  0.1160E+03
     10.719  0.7128E+01  0.1161E+03
     10.733  0.1278E+02  0.1163E+03
     10.747  0.1180E+02  0.1165E+03
     10.760  0.7213E+01  0.1166E+03
     10.774  0.8106E+01  0.1167E+03
     10.788  0.7665E+01  0.1168E+03
     10.802  0.3465E+01  0.1168E+03
     10.815  0.5445E+01  0.1169E+03
     10.829  0.5198E+01  0.1170E+03
     10.843  0.4778E+01  0.1170E+03
     10.857  0.7368E+01  0.1171E+03
     10.871  0.8306E+01  0.1173E+03
     10.884  0.7570E+01  0.1174E+03
     10.898  0.8019E+01  0.1175E+03
     10.912  0.6443E+01  0.1176E+03
     10.926  0.7378E+01  0.1177E+03
     10.939  0.6538E+01  0.1178E+03
     10.953  0.6947E+01  0.1179E+03
     10.967  0.8539E+01  0.1180E+03
     10.981  0.7624E+01  0.1181E+03
     10.995  0.3079E+01  0.1181E+03
     11.008  0.2857E+01  0.1182E+03
     11.022  0.9134E+00  0.1182E+03
     11.036  0.7740E+01  0.1183E+03
     11.050  0.1410E+02  0.1185E+03
     11.064  0.4207E+01  0.1185E+03
     11.077  0.3108E+01  0.1186E+03
     11.091  0.5252E+01  0.1186E+03
     11.105  0.6705E+01  0.1187E+03
     11.119  0.8438E+01  0.1189E+03
     11.132  0.1651E+02  0.1191E+03
     11.146  0.1978E+02  0.1194E+03
     11.160  0.1200E+02  0.1195E+03
     11.174  0.7048E+01  0.1196E+03
     11.188  0.6726E+01  0.1197E+03
     11.201  0.1909E+02  0.1200E+03
     11.215  0.1402E+02  0.1202E+03
     11.229  0.8005E+01  0.1203E+03
     11.243  0.8273E+01  0.1204E+03
     11.256  0.1250E+02  0.1206E+03
     11.270  0.1281E+02  0.1207E+03
     11.284  0.6121E+01  0.1208E+03
     11.298  0.7300E+01  0.1209E+03
     11.312  0.6202E+01  0.1210E+03
     11.325  0.6202E+01  0.1211E+03
     11.339  0.8362E+01  0.1212E+03
     11.353  0.1088E+02  0.1214E+03
     11.367  0.3992E+01  0.1214E+03
     11.381  0.8361E+00  0.1214E+03
     11.394  0.4719E+01  0.1215E+03
     11.408  0.8793E+01  0.1216E+03
     11.422  0.1227E+02  0.1218E+03
     11.436  0.8567E+01  0.1219E+03
     11.449  0.6359E+01  0.1220E+03
     11.463  0.3461E+01  0.1220E+03
     11.477  0.2435E+01  0.1221E+03
     11.491  0.9207E+01  0.1222E+03
     11.505  0.1096E+02  0.1223E+03
     11.518  0.4594E+01  0.1224E+03
     11.532  0.9677E+01  0.1225E+03
     11.546  0.1057E+02  0.1227E+03
     11.560  0.3209E+01  0.1227E+03
     11.574  0.9559E+00  0.1227E+03
     11.587  0.6097E+01  0.1228E+03
     11.601  0.9542E+01  0.1230E+03
     11.615  0.1218E+02  0.1231E+03
     11.629  0.1477E+01  0.1231E+03
     11.642  0.2679E+01  0.1232E+03
     11.656  0.8280E+01  0.1233E+03
     11.670  0.7071E+01  0.1234E+03
     11.684  0.5609E+01  0.1235E+03
     11.698  0.1649E+01  0.1235E+03
     11.711  0.6244E+01  0.1236E+03
     11.725  0.2104E+01  0.1236E+03
     11.739  0.2323E+01  0.1236E+03
     11.753  0.3857E+01  0.1237E+03
     11.766  0.8409E+01  0.1238E+03
     11.780  0.1363E+02  0.1240E+03
     11.794  0.1055E+02  0.1241E+03
     11.808  0.1169E+02  0.1243E+03
     11.822  0.1374E+02  0.1245E+03
     11.835  0.1054E+02  0.1246E+03
     11.849  0.1370E+02  0.1248E+03
     11.863  0.7670E+01  0.1249E+03
     11.877  0.1510E+02  0.1251E+03
     11.891  0.1427E+02  0.1253E+03
     11.904  0.5011E+01  0.1254E+03
     11.918  0.1105E+02  0.1256E+03
     11.932  0.1028E+02  0.1257E+03
     11.946  0.8333E+01  0.1258E+03
     11.959  0.1133E+02  0.1260E+03
     11.973  0.9346E+01  0.1261E+03
     11.987  0.5705E+01  0.1262E+03
     12.001  0.1418E+01  0.1262E+03
     12.015  0.4409E+01  0.1263E+03
     12.028  0.1003E+02  0.1264E+03
     12.042  0.9940E+01  0.1265E+03
     12.056  0.1029E+02  0.1267E+03
     12.070  0.1307E+02  0.1269E+03
     12.083  0.1207E+02  0.1270E+03
     12.097  0.4297E+01  0.1271E+03
     12.111  0.4094E+01  0.1271E+03
     12.125  0.6043E+01  0.1272E+03
     12.139  0.5508E+01  0.1273E+03
     12.152  0.5047E+01  0.1274E+03
     12.166  0.1812E+02  0.1276E+03
     12.180  0.9727E+01  0.1278E+03
     12.194  0.7980E+01  0.1279E+03
     12.208  0.1011E+02  0.1280E+03
     12.221  0.7371E+01  0.1281E+03
     12.235  0.5254E+01  0.1282E+03
     12.249  0.1253E+02  0.1284E+03
     12.263  0.9506E+01  0.1285E+03
     12.276  0.1251E+02  0.1287E+03
     12.290  0.9900E+01  0.1288E+03
     12.304  0.5723E+01  0.1289E+03
     12.318  0.7134E+01  0.1290E+03
     12.332  0.2728E+01  0.1290E+03
     12.345  0.4973E+01  0.1291E+03
     12.359  0.3909E+01  0.1291E+03
     12.373  0.1515E+01  0.1292E+03
     12.387  0.3780E+01  0.1292E+03
     12.400  0.9206E+01  0.1293E+03
     12.414  0.8052E+01  0.1294E+03
     12.428  0.1403E+02  0.1296E+03
     12.442  0.1429E+02  0.1298E+03
     12.456  0.1739E+01  0.1299E+03
     12.469  0.2313E+00  0.1299E+03
     12.483  0.4640E+01  0.1299E+03
     12.497  0.1375E+02  0.1301E+03
     12.511  0.1762E+02  0.1304E+03
     12.525  0.1402E+02  0.1305E+03
     12.538  0.4414E+01  0.1306E+03
     12.552  0.2765E+01  0.1306E+03
     12.566  0.3867E+01  0.1307E+03
     12.580  0.2369E+01  0.1307E+03
     12.593  0.4557E+01  0.1308E+03
     12.607  0.1157E+02  0.1310E+03
     12.621  0.1370E+02  0.1311E+03
     12.635  0.1738E+02  0.1314E+03
     12.649  0.1195E+02  0.1315E+03
     12.662  0.1048E+02  0.1317E+03
     12.676  0.9062E+01  0.1318E+03
     12.690  0.1281E+02  0.1320E+03
     12.704  0.1643E+02  0.1322E+03
     12.717  0.1184E+02  0.1324E+03
     12.731  0.3345E+01  0.1324E+03
     12.745  0.1081E+02  0.1326E+03
     12.759  0.1881E+02  0.1328E+03
     12.773  0.1350E+02  0.1330E+03
     12.786  0.1139E+02  0.1332E+03
     12.800  0.1298E+02  0.1334E+03
     12.814  0.9378E+01  0.1335E+03
     12.828  0.7488E+01  0.1336E+03
     12.842  0.1146E+02  0.1338E+03
     12.855  0.6952E+01  0.1338E+03
     12.869  0.1169E+02  0.1340E+03
     12.883  0.1500E+02  0.1342E+03
     12.897  0.7144E+01  0.1343E+03
     12.910  0.3635E+01  0.1344E+03
     12.924  0.8439E+01  0.1345E+03
     12.938  0.1159E+02  0.1346E+03
     12.952  0.6118E+01  0.1347E+03
     12.966  0.8154E+00  0.1347E+03
     12.979  0.1292E+01  0.1348E+03
     12.993  0.4928E+01  0.1348E+03
     13.007  0.8302E+01  0.1349E+03
     13.021  0.1335E+02  0.1351E+03
     13.034  0.1991E+02  0.1354E+03
     13.048  0.2188E+02  0.1357E+03
     13.062  0.1013E+02  0.1358E+03
     13.076  0.6221E+01  0.1359E+03
     13.090  0.1333E+02  0.1361E+03
     13.103  0.1571E+02  0.1363E+03
     13.117  0.6609E+01  0.1364E+03
     13.131  0.7200E+01  0.1365E+03
     13.145  0.1074E+02  0.1367E+03
     13.159  0.1202E+02  0.1368E+03
     13.172  0.6707E+01  0.1369E+03
     13.186  0.5387E+01  0.1370E+03
     13.200  0.5825E+01  0.1371E+03
     13.214  0.6441E+01  0.1372E+03
     13.227  0.7641E+01  0.1373E+03
     13.241  0.8012E+01  0.1374E+03
     13.255  0.1215E+02  0.1375E+03
     13.269  0.1046E+02  0.1377E+03
     13.283  0.1508E+02  0.1379E+03
     13.296  0.1505E+02  0.1381E+03
     13.310  0.1348E+02  0.1383E+03
     13.324  0.8397E+01  0.1384E+03
     13.338  0.5177E+01  0.1385E+03
     13.351  0.2923E+01  0.1385E+03
     13.365  0.5828E+01  0.1386E+03
     13.379  0.8622E+01  0.1387E+03
     13.393  0.1869E+02  0.1390E+03
     13.407  0.1459E+02  0.1392E+03
     13.420  0.9460E+01  0.1393E+03
     13.434  0.1082E+02  0.1395E+03
     13.448  0.1347E+02  0.1396E+03
     13.462  0.1484E+02  0.1398E+03
     13.476  0.1244E+02  0.1400E+03
     13.489  0.1034E+02  0.1402E+03
     13.503  0.2643E+01  0.1402E+03
     13.517  0.6245E+00  0.1402E+03
     13.531  0.4294E+01  0.1403E+03
     13.544  0.5605E+01  0.1403E+03
     13.558  0.7001E+01  0.1404E+03
     13.572  0.1732E+02  0.1407E+03
     13.586  0.2002E+02  0.1409E+03
     13.600  0.1897E+02  0.1412E+03
     13.613  0.1757E+02  0.1415E+03
     13.627  0.1220E+02  0.1416E+03
     13.641  0.1165E+02  0.1418E+03
     13.655  0.1267E+02  0.1420E+03
     13.669  0.8657E+01  0.1421E+03
     13.682  0.6917E+01  0.1422E+03
     13.696  0.5624E+01  0.1422E+03
     13.710  0.5199E+01  0.1423E+03
     13.724  0.5009E+01  0.1424E+03
     13.737  0.9044E+01  0.1425E+03
     13.751  0.7401E+01  0.1426E+03
     13.765  0.8815E+01  0.1427E+03
     13.779  0.1701E+02  0.1430E+03
     13.793  0.1178E+02  0.1431E+03
     13.806  0.1171E+02  0.1433E+03
     13.820  0.6480E+01  0.1434E+03
     13.834  0.4862E+01  0.1435E+03
     13.848  0.9770E+01  0.1436E+03
     13.861  0.1003E+02  0.1437E+03
     13.875  0.4649E+01  0.1438E+03
     13.889  0.2334E+01  0.1438E+03
     13.903  0.3748E+01  0.1439E+03
     13.917  0.1447E+02  0.1441E+03
     13.930  0.1868E+02  0.1443E+03
     13.944  0.1857E+02  0.1446E+03
     13.958  0.1191E+02  0.1447E+03
     13.972  0.8071E+01  0.1449E+03
     13.986  0.5359E+01  0.1449E+03
     13.999  0.8018E+01  0.1450E+03
     14.013  0.4206E+01  0.1451E+03
     14.027  0.6817E+01  0.1452E+03
     14.041  0.1773E+02  0.1454E+03
     14.054  0.1767E+02  0.1457E+03
     14.068  0.1373E+02  0.1459E+03
     14.082  0.1209E+02  0.1460E+03
     14.096  0.8431E+01  0.1462E+03
     14.110  0.7264E+01  0.1463E+03
     14.123  0.7118E+01  0.1464E+03
     14.137  0.1098E+02  0.1465E+03
     14.151  0.9435E+01  0.1466E+03
     14.165  0.1172E+02  0.1468E+03
     14.178  0.8596E+01  0.1469E+03
     14.192  0.1524E+02  0.1471E+03
     14.206  0.1807E+02  0.1474E+03
     14.220  0.9529E+01  0.1475E+03
     14.234  0.1141E+02  0.1477E+03
     14.247  0.1549E+02  0.1479E+03
     14.261  0.2274E+02  0.1482E+03
     14.275  0.1393E+02  0.1484E+03
     14.289  0.9987E+01  0.1485E+03
     14.303  0.4143E+01  0.1486E+03
     14.316  0.3435E+01  0.1486E+03
     14.330  0.7226E+01  0.1487E+03
     14.344  0.9834E+01  0.1489E+03
     14.358  0.1685E+02  0.1491E+03
     14.371  0.1700E+02  0.1493E+03
     14.385  0.2384E+02  0.1497E+03
     14.399  0.2095E+02  0.1499E+03
     14.413  0.1991E+02  0.1502E+03
     14.427  0.1124E+02  0.1504E+03
     14.440  0.7758E+01  0.1505E+03
     14.454  0.1942E+02  0.1507E+03
     14.468  0.1483E+02  0.1510E+03
     14.482  0.6959E+01  0.1510E+03
     14.495  0.1018E+02  0.1512E+03
     14.509  0.1811E+02  0.1514E+03
     14.523  0.1632E+02  0.1517E+03
     14.537  0.5282E+01  0.1517E+03
     14.551  0.3828E+01  0.1518E+03
     14.564  0.9912E+01  0.1519E+03
     14.578  0.1619E+02  0.1521E+03
     14.592  0.6771E+01  0.1522E+03
     14.606  0.9912E+01  0.1524E+03
     14.620  0.1586E+02  0.1526E+03
     14.633  0.1463E+02  0.1528E+03
     14.647  0.1778E+02  0.1530E+03
     14.661  0.8001E+01  0.1532E+03
     14.675  0.2941E+01  0.1532E+03
     14.688  0.6429E+01  0.1533E+03
     14.702  0.7887E+01  0.1534E+03
     14.716  0.1272E+02  0.1536E+03
     14.730  0.1397E+02  0.1538E+03
     14.744  0.3553E+01  0.1538E+03
     14.757  0.6641E+01  0.1539E+03
     14.771  0.1514E+02  0.1541E+03
     14.785  0.9389E+01  0.1542E+03
     14.799  0.9844E+01  0.1544E+03
     14.812  0.9201E+01  0.1545E+03
     14.826  0.7401E+01  0.1546E+03
     14.840  0.2642E+01  0.1546E+03
     14.854  0.1694E+01  0.1547E+03
     14.868  0.6403E+01  0.1548E+03
     14.881  0.1160E+02  0.1549E+03
     14.895  0.1030E+02  0.1551E+03
     14.909  0.1520E+02  0.1553E+03
     14.923  0.9135E+01  0.1554E+03
     14.937  0.9043E+01  0.1555E+03
     14.950  0.1893E+02  0.1558E+03
     14.964  0.9565E+01  0.1559E+03
     14.978  0.1790E+01  0.1559E+03
     14.992  0.1530E+01  0.1560E+03
     15.005  0.6523E+01  0.1560E+03
     15.019  0.9444E+01  0.1562E+03
     15.033  0.7170E+01  0.1563E+03
     15.047  0.7905E+01  0.1564E+03
     15.061  0.8552E+01  0.1565E+03
     15.074  0.6294E+01  0.1566E+03
     15.088  0.1236E+02  0.1568E+03
     15.102  0.1839E+02  0.1570E+03
     15.116  0.1104E+02  0.1572E+03
     15.129  0.1220E+02  0.1573E+03
     15.143  0.1494E+02  0.1575E+03
     15.157  0.8974E+01  0.1577E+03
     15.171  0.8981E+01  0.1578E+03
     15.185  0.6142E+01  0.1579E+03
     15.198  0.1236E+02  0.1580E+03
     15.212  0.8131E+01  0.1581E+03
     15.226  0.6167E+01  0.1582E+03
     15.240  0.3341E+01  0.1583E+03
     15.254  0.7339E+01  0.1584E+03
     15.267  0.1101E+02  0.1585E+03
     15.281  0.6608E+01  0.1586E+03
     15.295  0.1351E+02  0.1588E+03
     15.309  0.1494E+02  0.1590E+03
     15.322  0.8939E+01  0.1591E+03
     15.336  0.9173E+01  0.1593E+03
     15.350  0.9176E+01  0.1594E+03
     15.364  0.5062E+01  0.1595E+03
     15.378  0.3755E+01  0.1595E+03
     15.391  0.3151E+01  0.1596E+03
     15.405  0.1482E+01  0.1596E+03
     15.419  0.4080E+01  0.1596E+03
     15.433  0.5116E+01  0.1597E+03
     15.446  0.2339E+01  0.1597E+03
     15.460  0.2316E+01  0.1598E+03
     15.474  0.1201E+02  0.1599E+03
     15.488  0.8135E+01  0.1600E+03
     15.502  0.7867E+01  0.1602E+03
     15.515  0.1097E+02  0.1603E+03
     15.529  0.5771E+01  0.1604E+03
     15.543  0.1253E+02  0.1606E+03
     15.557  0.1548E+02  0.1608E+03
     15.571  0.1707E+02  0.1610E+03
     15.584  0.4588E+01  0.1611E+03
     15.598  0.2121E+01  0.1611E+03
     15.612  0.7569E+00  0.1611E+03
     15.626  0.2072E+01  0.1611E+03
     15.639  0.5924E+01  0.1612E+03
     15.653  0.3830E+01  0.1613E+03
     15.667  0.3531E+01  0.1613E+03
     15.681  0.1532E+02  0.1615E+03
     15.695  0.1772E+02  0.1618E+03
     15.708  0.1808E+02  0.1620E+03
     15.722  0.9801E+01  0.1622E+03
     15.736  0.8828E+01  0.1623E+03
     15.750  0.8504E+01  0.1624E+03
     15.764  0.6860E+01  0.1625E+03
     15.777  0.1267E+02  0.1627E+03
     15.791  0.1086E+02  0.1628E+03
     15.805  0.9438E+01  0.1629E+03
     15.819  0.6586E+01  0.1630E+03
     15.832  0.1867E+02  0.1633E+03
     15.846  0.1472E+02  0.1635E+03
     15.860  0.4227E+01  0.1636E+03
     15.874  0.1130E+02  0.1637E+03
     15.888  0.2082E+02  0.1640E+03
     15.901  0.7812E+01  0.1641E+03
     15.915  0.1352E+01  0.1641E+03
     15.929  0.6266E+01  0.1642E+03
     15.943  0.7652E+01  0.1643E+03
     15.956  0.9651E+01  0.1645E+03
     15.970  0.1095E+02  0.1646E+03
     15.984  0.1369E+02  0.1648E+03
     15.998  0.1125E+02  0.1649E+03
     16.012  0.1349E+02  0.1651E+03
     16.025  0.7464E+01  0.1652E+03
     16.039  0.8910E+00  0.1652E+03
     16.053  0.1640E+01  0.1653E+03
     16.067  0.7063E+01  0.1654E+03
     16.081  0.5159E+01  0.1654E+03
     16.094  0.6114E+01  0.1655E+03
     16.108  0.8771E+01  0.1656E+03
     16.122  0.1052E+02  0.1658E+03
     16.136  0.8721E+01  0.1659E+03
     16.149  0.6576E+01  0.1660E+03
     16.163  0.1130E+02  0.1662E+03
     16.177  0.2612E+02  0.1665E+03
     16.191  0.1102E+02  0.1667E+03
     16.205  0.5738E+01  0.1667E+03
     16.218  0.3854E+01  0.1668E+03
     16.232  0.8802E+01  0.1669E+03
     16.246  0.5161E+01  0.1670E+03
     16.260  0.2241E+01  0.1670E+03
     16.273  0.1145E+02  0.1672E+03
     16.287  0.1633E+02  0.1674E+03
     16.301  0.7645E+01  0.1675E+03
     16.315  0.8815E+01  0.1676E+03
     16.329  0.1349E+02  0.1678E+03
     16.342  0.1080E+02  0.1680E+03
     16.356  0.5467E+01  0.1680E+03
     16.370  0.6016E+01  0.1681E+03
     16.384  0.7087E+01  0.1682E+03
     16.398  0.1775E+01  0.1682E+03
     16.411  0.7000E+01  0.1683E+03
     16.425  0.1105E+02  0.1685E+03
     16.439  0.6475E+01  0.1686E+03
     16.453  0.1027E+02  0.1687E+03
     16.466  0.6733E+01  0.1688E+03
     16.480  0.2936E+01  0.1689E+03
     16.494  0.8181E+01  0.1690E+03
     16.508  0.9401E+01  0.1691E+03
     16.522  0.3038E+01  0.1691E+03
     16.535  0.8826E+01  0.1693E+03
     16.549  0.1863E+02  0.1695E+03
     16.563  0.1833E+02  0.1698E+03
     16.577  0.6866E+01  0.1699E+03
     16.590  0.1493E+02  0.1701E+03
     16.604  0.1133E+02  0.1702E+03
     16.618  0.6791E+01  0.1703E+03
     16.632  0.1396E+02  0.1705E+03
     16.646  0.6881E+01  0.1706E+03
     16.659  0.1227E+02  0.1708E+03
     16.673  0.1585E+02  0.1710E+03
     16.687  0.7020E+01  0.1711E+03
     16.701  0.1003E+02  0.1712E+03
     16.715  0.1826E+02  0.1715E+03
     16.728  0.1090E+02  0.1716E+03
     16.742  0.1109E+02  0.1718E+03
     16.756  0.1444E+02  0.1720E+03
     16.770  0.1500E+02  0.1722E+03
     16.783  0.6597E+01  0.1723E+03
     16.797  0.7161E+01  0.1724E+03
     16.811  0.1089E+02  0.1725E+03
     16.825  0.5293E+01  0.1726E+03
     16.839  0.1120E+02  0.1728E+03
     16.852  0.1371E+02  0.1730E+03
     16.866  0.1509E+02  0.1732E+03
     16.880  0.9612E+01  0.1733E+03
     16.894  0.3207E+01  0.1733E+03
     16.907  0.1010E+02  0.1735E+03
     16.921  0.6023E+01  0.1736E+03
     16.935  0.4217E+01  0.1736E+03
     16.949  0.5045E+01  0.1737E+03
     16.963  0.4626E+01  0.1738E+03
     16.976  0.6222E+01  0.1738E+03
     16.990  0.1646E+02  0.1741E+03
     17.004  0.1528E+02  0.1743E+03
     17.018  0.7297E+01  0.1744E+03
     17.032  0.1116E+02  0.1745E+03
     17.045  0.9625E+01  0.1747E+03
     17.059  0.8858E+01  0.1748E+03
     17.073  0.1138E+02  0.1749E+03
     17.087  0.3366E+01  0.1750E+03
     17.100  0.2929E+01  0.1750E+03
     17.114  0.9047E+01  0.1752E+03
     17.128  0.1113E+02  0.1753E+03
     17.142  0.1645E+02  0.1755E+03
     17.156  0.1070E+02  0.1757E+03
     17.169  0.9425E+01  0.1758E+03
     17.183  0.7067E+01  0.1759E+03
     17.197  0.1341E+02  0.1761E+03
     17.211  0.2179E+02  0.1764E+03
     17.224  0.1491E+02  0.1766E+03
     17.238  0.1096E+02  0.1767E+03
     17.252  0.1169E+02  0.1769E+03
     17.266  0.1848E+02  0.1772E+03
     17.280  0.9213E+01  0.1773E+03
     17.293  0.2362E+01  0.1773E+03
     17.307  0.4603E+01  0.1774E+03
     17.321  0.6017E+01  0.1775E+03
     17.335  0.3874E+01  0.1775E+03
     17.349  0.8967E+01  0.1776E+03
     17.362  0.7296E+01  0.1777E+03
     17.376  0.8708E+01  0.1779E+03
     17.390  0.1137E+02  0.1780E+03
     17.404  0.6664E+01  0.1781E+03
     17.417  0.8472E+01  0.1782E+03
     17.431  0.7145E+01  0.1783E+03
     17.445  0.5566E+01  0.1784E+03
     17.459  0.8767E+01  0.1785E+03
     17.473  0.1047E+02  0.1787E+03
     17.486  0.1417E+02  0.1789E+03
     17.500  0.1932E+02  0.1791E+03
     17.514  0.9028E+01  0.1793E+03
     17.528  0.1292E+02  0.1794E+03
     17.542  0.1298E+02  0.1796E+03
     17.555  0.3773E+01  0.1797E+03
     17.569  0.3548E+01  0.1797E+03
     17.583  0.8023E+01  0.1798E+03
     17.597  0.8158E+01  0.1799E+03
     17.610  0.1537E+02  0.1802E+03
     17.624  0.7843E+01  0.1803E+03
     17.638  0.1069E+02  0.1804E+03
     17.652  0.5352E+01  0.1805E+03
     17.666  0.8893E+01  0.1806E+03
     17.679  0.1842E+02  0.1809E+03
     17.693  0.1497E+02  0.1811E+03
     17.707  0.9287E+01  0.1812E+03
     17.721  0.7529E+01  0.1813E+03
     17.734  0.6334E+01  0.1814E+03
     17.748  0.6095E+01  0.1815E+03
     17.762  0.1470E+02  0.1817E+03
     17.776  0.2448E+02  0.1820E+03
     17.790  0.1076E+02  0.1822E+03
     17.803  0.3187E+01  0.1822E+03
     17.817  0.7013E+01  0.1823E+03
     17.831  0.8377E+01  0.1824E+03
     17.845  0.9045E+01  0.1825E+03
     17.859  0.1276E+02  0.1827E+03
     17.872  0.1193E+02  0.1829E+03
     17.886  0.5632E+01  0.1830E+03
     17.900  0.6966E+01  0.1830E+03
     17.914  0.1236E+02  0.1832E+03
     17.927  0.6441E+01  0.1833E+03
     17.941  0.1309E+02  0.1835E+03
     17.955  0.1299E+02  0.1837E+03
     17.969  0.1325E+02  0.1839E+03
     17.983  0.1003E+02  0.1840E+03
     17.996  0.4198E+01  0.1840E+03
     18.010  0.1200E+02  0.1842E+03
     18.024  0.7670E+01  0.1843E+03
     18.038  0.9469E+01  0.1844E+03
     18.051  0.4378E+01  0.1845E+03
     18.065  0.2354E+01  0.1845E+03
     18.079  0.5298E+00  0.1845E+03
     18.093  0.3197E+01  0.1846E+03
     18.107  0.8402E+01  0.1847E+03
     18.120  0.1077E+02  0.1849E+03
     18.134  0.1593E+02  0.1851E+03
     18.148  0.1145E+02  0.1852E+03
     18.162  0.1154E+02  0.1854E+03
     18.176  0.4799E+01  0.1855E+03
     18.189  0.7705E+01  0.1856E+03
     18.203  0.7458E+01  0.1857E+03
     18.217  0.1051E+02  0.1858E+03
     18.231  0.1558E+02  0.1860E+03
     18.244  0.1092E+02  0.1862E+03
     18.258  0.8391E+01  0.1863E+03
     18.272  0.1180E+02  0.1865E+03
     18.286  0.1197E+02  0.1866E+03
     18.300  0.1840E+02  0.1869E+03
     18.313  0.5722E+01  0.1870E+03
     18.327  0.3636E+01  0.1870E+03
     18.341  0.1428E+02  0.1872E+03
     18.355  0.1247E+02  0.1874E+03
     18.368  0.6152E+01  0.1875E+03
     18.382  0.9679E+01  0.1876E+03
     18.396  0.1030E+02  0.1877E+03
     18.410  0.1159E+02  0.1879E+03
     18.424  0.9001E+01  0.1880E+03
     18.437  0.5471E+01  0.1881E+03
     18.451  0.1292E+02  0.1883E+03
     18.465  0.2447E+02  0.1886E+03
     18.479  0.1497E+02  0.1888E+03
     18.493  0.3266E+01  0.1889E+03
     18.506  0.5403E+00  0.1889E+03
     18.520  0.2905E+01  0.1889E+03
     18.534  0.8320E+01  0.1890E+03
     18.548  0.1689E+02  0.1893E+03
     18.561  0.1526E+02  0.1895E+03
     18.575  0.1151E+02  0.1896E+03
     18.589  0.9168E+01  0.1897E+03
     18.603  0.6873E+01  0.1898E+03
     18.617  0.2020E+02  0.1901E+03
     18.630  0.1429E+02  0.1903E+03
     18.644  0.6742E+01  0.1904E+03
     18.658  0.1454E+02  0.1906E+03
     18.672  0.1608E+02  0.1908E+03
     18.685  0.1039E+02  0.1910E+03
     18.699  0.3482E+01  0.1910E+03
     18.713  0.1259E+02  0.1912E+03
     18.727  0.1297E+02  0.1914E+03
     18.741  0.5432E+01  0.1915E+03
     18.754  0.6106E+01  0.1915E+03
     18.768  0.7643E+01  0.1916E+03
     18.782  0.1198E+02  0.1918E+03
     18.796  0.1479E+02  0.1920E+03
     18.810  0.1389E+02  0.1922E+03
     18.823  0.1261E+02  0.1924E+03
     18.837  0.5518E+01  0.1925E+03
     18.851  0.5464E+01  0.1925E+03
     18.865  0.5174E+01  0.1926E+03
     18.878  0.1197E+02  0.1928E+03
     18.892  0.4917E+01  0.1928E+03
     18.906  0.1027E+02  0.1930E+03
     18.920  0.1627E+02  0.1932E+03
     18.934  0.6970E+01  0.1933E+03
     18.947  0.4989E+01  0.1934E+03
     18.961  0.9405E+01  0.1935E+03
     18.975  0.1918E+02  0.1938E+03
     18.989  0.1777E+02  0.1940E+03
     19.002  0.7844E+01  0.1941E+03
     19.016  0.1034E+02  0.1943E+03
     19.030  0.2015E+02  0.1945E+03
     19.044  0.1528E+02  0.1947E+03
     19.058  0.1044E+02  0.1949E+03
     19.071  0.1024E+02  0.1950E+03
     19.085  0.1348E+02  0.1952E+03
     19.099  0.1294E+02  0.1954E+03
     19.113  0.1391E+02  0.1956E+03
     19.127  0.1396E+02  0.1958E+03
     19.140  0.8774E+01  0.1959E+03
     19.154  0.2123E+02  0.1962E+03
     19.168  0.1368E+02  0.1964E+03
     19.182  0.4987E+01  0.1964E+03
     19.195  0.2051E+01  0.1965E+03
     19.209  0.4555E+01  0.1965E+03
     19.223  0.1294E+02  0.1967E+03
     19.237  0.1919E+02  0.1970E+03
     19.251  0.1808E+02  0.1972E+03
     19.264  0.1300E+02  0.1974E+03
     19.278  0.1040E+02  0.1975E+03
     19.292  0.7661E+01  0.1977E+03
     19.306  0.7318E+01  0.1978E+03
     19.319  0.9140E+01  0.1979E+03
     19.333  0.9239E+01  0.1980E+03
     19.347  0.6597E+01  0.1981E+03
     19.361  0.1147E+02  0.1983E+03
     19.375  0.1232E+02  0.1984E+03
     19.388  0.5802E+01  0.1985E+03
     19.402  0.2753E+01  0.1985E+03
     19.416  0.1047E+02  0.1987E+03
     19.430  0.8653E+01  0.1988E+03
     19.444  0.1860E+02  0.1991E+03
     19.457  0.2076E+02  0.1994E+03
     19.471  0.1289E+02  0.1995E+03
     19.485  0.1119E+02  0.1997E+03
     19.499  0.1396E+02  0.1999E+03
     19.512  0.1618E+02  0.2001E+03
     19.526  0.1233E+02  0.2003E+03
     19.540  0.1957E+02  0.2005E+03
     19.554  0.1261E+02  0.2007E+03
     19.568  0.9638E+01  0.2008E+03
     19.581  0.1885E+02  0.2011E+03
     19.595  0.2082E+02  0.2014E+03
     19.609  0.2054E+02  0.2017E+03
     19.623  0.1094E+02  0.2018E+03
     19.637  0.6609E+01  0.2019E+03
     19.650  0.5645E+01  0.2020E+03
     19.664  0.1123E+02  0.2022E+03
     19.678  0.1217E+02  0.2023E+03
     19.692  0.8463E+01  0.2024E+03
     19.705  0.9491E+01  0.2026E+03
     19.719  0.7687E+01  0.2027E+03
     19.733  0.8964E+01  0.2028E+03
     19.747  0.8181E+01  0.2029E+03
     19.761  0.1479E+02  0.2031E+03
     19.774  0.1733E+02  0.2034E+03
     19.788  0.1258E+02  0.2035E+03
     19.802  0.1075E+02  0.2037E+03
     19.816  0.3344E+01  0.2037E+03
     19.829  0.1176E+02  0.2039E+03
     19.843  0.1799E+02  0.2041E+03
     19.857  0.8929E+01  0.2043E+03
     19.871  0.3980E+01  0.2043E+03
     19.885  0.1087E+02  0.2045E+03
     19.898  0.1212E+02  0.2046E+03
     19.912  0.1433E+02  0.2048E+03
     19.926  0.9352E+01  0.2049E+03
     19.940  0.8150E+01  0.2051E+03
     19.954  0.9309E+01  0.2052E+03
     19.967  0.7841E+01  0.2053E+03
     19.981  0.5891E+01  0.2054E+03
     19.995  0.1810E+02  0.2056E+03
     20.009  0.8274E+01  0.2057E+03
     20.022  0.5667E+01  0.2058E+03
     20.036  0.9842E+01  0.2060E+03
     20.050  0.8049E+01  0.2061E+03
     20.064  0.1355E+02  0.2063E+03
     20.078  0.8778E+01  0.2064E+03
     20.091  0.1160E+02  0.2065E+03
     20.105  0.1115E+02  0.2067E+03
     20.119  0.5909E+01  0.2068E+03
     20.133  0.4384E+01  0.2068E+03
     20.146  0.4496E+01  0.2069E+03
     20.160  0.6383E+01  0.2070E+03
     20.174  0.4908E+01  0.2070E+03
     20.188  0.4507E+01  0.2071E+03
     20.202  0.4167E+01  0.2072E+03
     20.215  0.4051E+01  0.2072E+03
     20.229  0.2604E+01  0.2073E+03
     20.243  0.3359E+01  0.2073E+03
     20.257  0.9364E+01  0.2074E+03
     20.271  0.1168E+02  0.2076E+03
     20.284  0.1251E+02  0.2078E+03
     20.298  0.7975E+01  0.2079E+03
     20.312  0.1420E+02  0.2081E+03
     20.326  0.1624E+02  0.2083E+03
     20.339  0.1315E+02  0.2085E+03
     20.353  0.5894E+01  0.2086E+03
     20.367  0.7097E+01  0.2087E+03
     20.381  0.8702E+01  0.2088E+03
     20.395  0.6406E+01  0.2089E+03
     20.408  0.3702E+01  0.2089E+03
     20.422  0.1136E+02  0.2091E+03
     20.436  0.1571E+02  0.2093E+03
     20.450  0.1190E+02  0.2095E+03
     20.463  0.5626E+01  0.2095E+03
     20.477  0.6461E+01  0.2096E+03
     20.491  0.1569E+02  0.2098E+03
     20.505  0.1264E+02  0.2100E+03
     20.519  0.2643E+01  0.2100E+03
     20.532  0.2424E+00  0.2101E+03
     20.546  0.6610E+01  0.2101E+03
     20.560  0.1542E+02  0.2104E+03
     20.574  0.6445E+01  0.2104E+03
     20.588  0.8682E+01  0.2106E+03
     20.601  0.6484E+01  0.2107E+03
     20.615  0.4564E+01  0.2107E+03
     20.629  0.5652E+01  0.2108E+03
     20.643  0.1072E+02  0.2109E+03
     20.656  0.6461E+01  0.2110E+03
     20.670  0.6780E+01  0.2111E+03
     20.684  0.1863E+02  0.2114E+03
     20.698  0.2431E+02  0.2117E+03
     20.712  0.1910E+02  0.2120E+03
     20.725  0.8099E+01  0.2121E+03
     20.739  0.8676E+01  0.2122E+03
     20.753  0.8403E+01  0.2123E+03
     20.767  0.9777E+01  0.2125E+03
     20.780  0.7045E+01  0.2126E+03
     20.794  0.8176E+01  0.2127E+03
     20.808  0.3716E+01  0.2127E+03
     20.822  0.5069E+01  0.2128E+03
     20.836  0.3458E+01  0.2128E+03
     20.849  0.3998E+01  0.2129E+03
     20.863  0.7033E+01  0.2130E+03
     20.877  0.1472E+02  0.2132E+03
     20.891  0.1147E+02  0.2134E+03
     20.905  0.5245E+01  0.2134E+03
     20.918  0.5240E+01  0.2135E+03
     20.932  0.3954E+01  0.2136E+03
     20.946  0.6162E+01  0.2136E+03
     20.960  0.1160E+02  0.2138E+03
     20.973  0.1109E+02  0.2139E+03
     20.987  0.1180E+02  0.2141E+03
     21.001  0.1326E+02  0.2143E+03
     21.015  0.1054E+02  0.2144E+03
     21.029  0.5121E+01  0.2145E+03
     21.042  0.3423E+01  0.2146E+03
     21.056  0.9721E+01  0.2147E+03
     21.070  0.2187E+02  0.2150E+03
     21.084  0.1260E+02  0.2152E+03
     21.097  0.4978E+01  0.2152E+03
     21.111  0.1090E+02  0.2154E+03
     21.125  0.9251E+01  0.2155E+03
     21.139  0.1184E+02  0.2157E+03
     21.153  0.1785E+02  0.2159E+03
     21.166  0.1346E+02  0.2161E+03
     21.180  0.1391E+02  0.2163E+03
     21.194  0.1251E+02  0.2165E+03
     21.208  0.9892E+01  0.2166E+03
     21.222  0.8077E+01  0.2167E+03
     21.235  0.6269E+01  0.2168E+03
     21.249  0.9942E+01  0.2169E+03
     21.263  0.1120E+02  0.2171E+03
     21.277  0.1348E+02  0.2173E+03
     21.290  0.1727E+02  0.2175E+03
     21.304  0.9306E+01  0.2176E+03
     21.318  0.8704E+01  0.2178E+03
     21.332  0.5759E+01  0.2178E+03
     21.346  0.1068E+02  0.2180E+03
     21.359  0.1337E+02  0.2182E+03
     21.373  0.1346E+02  0.2184E+03
     21.387  0.9103E+01  0.2185E+03
     21.401  0.8421E+01  0.2186E+03
     21.414  0.1259E+02  0.2188E+03
     21.428  0.1233E+02  0.2190E+03
     21.442  0.8173E+01  0.2191E+03
     21.456  0.3696E+01  0.2191E+03
     21.470  0.1773E+02  0.2194E+03
     21.483  0.1629E+02  0.2196E+03
     21.497  0.1437E+02  0.2198E+03
     21.511  0.1889E+02  0.2200E+03
     21.525  0.9091E+01  0.2202E+03
     21.539  0.1095E+02  0.2203E+03
     21.552  0.1138E+02  0.2205E+03
     21.566  0.3781E+01  0.2205E+03
     21.580  0.4292E+01  0.2206E+03
     21.594  0.1592E+02  0.2208E+03
     21.607  0.1109E+02  0.2210E+03
     21.621  0.7413E+01  0.2211E+03
     21.635  0.6097E+01  0.2211E+03
     21.649  0.7836E+01  0.2213E+03
     21.663  0.8213E+01  0.2214E+03
     21.676  0.9087E+01  0.2215E+03
     21.690  0.7658E+01  0.2216E+03
     21.704  0.6879E+01  0.2217E+03
     21.718  0.8981E+01  0.2218E+03
     21.732  0.1870E+02  0.2221E+03
     21.745  0.1405E+02  0.2223E+03
     21.759  0.9909E+01  0.2224E+03
     21.773  0.8074E+01  0.2225E+03
     21.787  0.1143E+02  0.2227E+03
     21.800  0.6277E+01  0.2228E+03
     21.814  0.1312E+02  0.2229E+03
     21.828  0.1187E+02  0.2231E+03
     21.842  0.5939E+01  0.2232E+03
     21.856  0.5595E+01  0.2233E+03
     21.869  0.1140E+02  0.2234E+03
     21.883  0.7942E+01  0.2235E+03
     21.897  0.1175E+02  0.2237E+03
     21.911  0.1261E+02  0.2239E+03
     21.924  0.1392E+02  0.2241E+03
     21.938  0.1175E+02  0.2242E+03
     21.952  0.9816E+01  0.2244E+03
     21.966  0.1019E+02  0.2245E+03
     21.980  0.7342E+01  0.2246E+03
     21.993  0.9501E+01  0.2247E+03
     22.007  0.1473E+02  0.2249E+03
     22.021  0.1990E+02  0.2252E+03
     22.035  0.1860E+02  0.2255E+03
     22.049  0.1331E+02  0.2256E+03
     22.062  0.8164E+01  0.2258E+03
     22.076  0.5017E+01  0.2258E+03
     22.090  0.1244E+02  0.2260E+03
     22.104  0.1479E+02  0.2262E+03
     22.117  0.1342E+02  0.2264E+03
     22.131  0.8617E+01  0.2265E+03
     22.145  0.9855E+01  0.2266E+03
     22.159  0.1516E+02  0.2268E+03
     22.173  0.9872E+01  0.2270E+03
     22.186  0.1067E+02  0.2271E+03
     22.200  0.7660E+01  0.2272E+03
     22.214  0.5066E+01  0.2273E+03
     22.228  0.7726E+01  0.2274E+03
     22.241  0.8966E+01  0.2275E+03
     22.255  0.1728E+02  0.2278E+03
     22.269  0.1711E+02  0.2280E+03
     22.283  0.7621E+01  0.2281E+03
     22.297  0.3375E+01  0.2282E+03
     22.310  0.1013E+02  0.2283E+03
     22.324  0.1458E+02  0.2285E+03
     22.338  0.7318E+01  0.2286E+03
     22.352  0.8561E+01  0.2287E+03
     22.366  0.7321E+01  0.2288E+03
     22.379  0.7652E+01  0.2289E+03
     22.393  0.8775E+01  0.2290E+03
     22.407  0.1020E+02  0.2292E+03
     22.421  0.1109E+02  0.2293E+03
     22.434  0.8794E+01  0.2295E+03
     22.448  0.1382E+02  0.2297E+03
     22.462  0.5949E+01  0.2297E+03
     22.476  0.3348E+01  0.2298E+03
     22.490  0.4182E+01  0.2298E+03
     22.503  0.1283E+02  0.2300E+03
     22.517  0.9181E+01  0.2301E+03
     22.531  0.1083E+02  0.2303E+03
     22.545  0.1968E+02  0.2306E+03
     22.558  0.1796E+02  0.2308E+03
     22.572  0.6742E+01  0.2309E+03
     22.586  0.1453E+02  0.2311E+03
     22.600  0.9846E+01  0.2312E+03
     22.614  0.8800E+01  0.2314E+03
     22.627  0.9803E+01  0.2315E+03
     22.641  0.7948E+01  0.2316E+03
     22.655  0.1131E+02  0.2318E+03
     22.669  0.6317E+01  0.2318E+03
     22.683  0.7919E+01  0.2320E+03
     22.696  0.1695E+02  0.2322E+03
     22.710  0.1308E+02  0.2324E+03
     22.724  0.1237E+02  0.2325E+03
     22.738  0.7882E+01  0.2327E+03
     22.751  0.2168E+01  0.2327E+03
     22.765  0.1850E+01  0.2327E+03
     22.779  0.4133E+01  0.2328E+03
     22.793  0.1120E+02  0.2329E+03
     22.807  0.1104E+02  0.2331E+03
     22.820  0.9760E+01  0.2332E+03
     22.834  0.7146E+01  0.2333E+03
     22.848  0.9322E+01  0.2334E+03
     22.862  0.3658E+01  0.2335E+03
     22.875  0.5925E+01  0.2336E+03
     22.889  0.1380E+02  0.2338E+03
     22.903  0.1834E+02  0.2340E+03
     22.917  0.1411E+02  0.2342E+03
     22.931  0.6103E+01  0.2343E+03
     22.944  0.1041E+02  0.2344E+03
     22.958  0.9750E+01  0.2346E+03
     22.972  0.7244E+01  0.2347E+03
     22.986  0.6152E+01  0.2347E+03
     23.000  0.1995E+01  0.2348E+03
     23.013  0.1255E+01  0.2348E+03
     23.027  0.7576E+01  0.2349E+03
     23.041  0.1163E+02  0.2351E+03
     23.055  0.8452E+01  0.2352E+03
     23.068  0.6127E+01  0.2353E+03
     23.082  0.8303E+01  0.2354E+03
     23.096  0.1147E+02  0.2355E+03
     23.110  0.7704E+01  0.2356E+03
     23.124  0.1113E+02  0.2358E+03
     23.137  0.9830E+01  0.2359E+03
     23.151  0.6402E+01  0.2360E+03
     23.165  0.1065E+02  0.2362E+03
     23.179  0.1320E+02  0.2363E+03
     23.192  0.1299E+02  0.2365E+03
     23.206  0.3598E+01  0.2366E+03
     23.220  0.4570E+01  0.2366E+03
     23.234  0.5649E+01  0.2367E+03
     23.248  0.1137E+02  0.2369E+03
     23.261  0.1911E+02  0.2371E+03
     23.275  0.1179E+02  0.2373E+03
     23.289  0.6815E+01  0.2374E+03
     23.303  0.1455E+02  0.2376E+03
     23.317  0.9028E+01  0.2377E+03
     23.330  0.6678E+01  0.2378E+03
     23.344  0.6702E+01  0.2379E+03
     23.358  0.4777E+01  0.2380E+03
     23.372  0.8713E+01  0.2381E+03
     23.385  0.9067E+01  0.2382E+03
     23.399  0.1545E+02  0.2384E+03
     23.413  0.1314E+02  0.2386E+03
     23.427  0.7346E+01  0.2387E+03
     23.441  0.7219E+01  0.2388E+03
     23.454  0.9945E+01  0.2389E+03
     23.468  0.1064E+02  0.2391E+03
     23.482  0.9994E+01  0.2392E+03
     23.496  0.8479E+01  0.2393E+03
     23.510  0.1331E+02  0.2395E+03
     23.523  0.1995E+02  0.2398E+03
     23.537  0.7512E+01  0.2399E+03
     23.551  0.3037E+01  0.2399E+03
     23.565  0.4925E+01  0.2400E+03
     23.578  0.6494E+01  0.2401E+03
     23.592  0.1007E+02  0.2402E+03
     23.606  0.6488E+01  0.2403E+03
     23.620  0.1006E+02  0.2405E+03
     23.634  0.1840E+02  0.2407E+03
     23.647  0.8197E+01  0.2408E+03
     23.661  0.7888E+00  0.2408E+03
     23.675  0.6560E+01  0.2409E+03
     23.689  0.1408E+02  0.2411E+03
     23.702  0.6515E+01  0.2412E+03
     23.716  0.1685E+02  0.2415E+03
     23.730  0.1530E+02  0.2417E+03
     23.744  0.1181E+02  0.2418E+03
     23.758  0.8452E+01  0.2419E+03
     23.771  0.8099E+01  0.2421E+03
     23.785  0.4343E+01  0.2421E+03
     23.799  0.1196E+01  0.2421E+03
     23.813  0.1515E+01  0.2422E+03
     23.827  0.2357E+01  0.2422E+03
     23.840  0.8908E+01  0.2423E+03
     23.854  0.1054E+02  0.2425E+03
     23.868  0.7817E+01  0.2426E+03
     23.882  0.7864E+01  0.2427E+03
     23.895  0.6643E+01  0.2428E+03
     23.909  0.8483E+01  0.2429E+03
     23.923  0.1164E+02  0.2430E+03
     23.937  0.1440E+02  0.2432E+03
     23.951  0.6833E+01  0.2433E+03
     23.964  0.4395E+01  0.2434E+03
     23.978  0.7283E+01  0.2435E+03
     23.992  0.2534E+01  0.2435E+03
     24.006  0.5305E+01  0.2436E+03
     24.019  0.5176E+01  0.2437E+03
     24.033  0.4148E+01  0.2437E+03
     24.047  0.8353E+01  0.2438E+03
     24.061  0.1120E+02  0.2440E+03
     24.075  0.9160E+01  0.2441E+03
     24.088  0.1236E+02  0.2443E+03
     24.102  0.4897E+01  0.2444E+03
     24.116  0.3588E+01  0.2444E+03
     24.130  0.1011E+02  0.2446E+03
     24.144  0.1440E+02  0.2447E+03
     24.157  0.1366E+02  0.2449E+03
     24.171  0.7940E+01  0.2450E+03
     24.185  0.6051E+01  0.2451E+03
     24.199  0.5809E+01  0.2452E+03
     24.212  0.9504E+01  0.2453E+03
     24.226  0.7412E+01  0.2454E+03
     24.240  0.4476E+01  0.2455E+03
     24.254  0.5003E+01  0.2456E+03
     24.268  0.3645E+01  0.2456E+03
     24.281  0.6415E+01  0.2457E+03
     24.295  0.1105E+02  0.2459E+03
     24.309  0.5777E+01  0.2459E+03
     24.323  0.3634E+01  0.2460E+03
     24.336  0.4026E+00  0.2460E+03
     24.350  0.2633E+01  0.2460E+03
     24.364  0.1049E+02  0.2462E+03
     24.378  0.1204E+02  0.2463E+03
     24.392  0.6124E+01  0.2464E+03
     24.405  0.5066E+01  0.2465E+03
     24.419  0.4457E+01  0.2466E+03
     24.433  0.6444E+01  0.2467E+03
     24.447  0.1206E+02  0.2468E+03
     24.461  0.6744E+01  0.2469E+03
     24.474  0.8322E+01  0.2470E+03
     24.488  0.7260E+01  0.2471E+03
     24.502  0.8253E+01  0.2472E+03
     24.516  0.4796E+01  0.2473E+03
     24.529  0.1075E+02  0.2475E+03
     24.543  0.1328E+02  0.2476E+03
     24.557  0.3946E+01  0.2477E+03
     24.571  0.1031E+02  0.2478E+03
     24.585  0.1566E+02  0.2480E+03
     24.598  0.2960E+01  0.2481E+03
     24.612  0.2042E+01  0.2481E+03
     24.626  0.1423E+01  0.2481E+03
     24.640  0.7216E+01  0.2482E+03
     24.653  0.9429E+01  0.2484E+03
     24.667  0.7834E+01  0.2485E+03
     24.681  0.8288E+01  0.2486E+03
     24.695  0.1024E+02  0.2487E+03
     24.709  0.8892E+01  0.2489E+03
     24.722  0.1904E+01  0.2489E+03
     24.736  0.5613E+01  0.2490E+03
     24.750  0.9682E+01  0.2491E+03
     24.764  0.1096E+02  0.2492E+03
     24.778  0.6671E+01  0.2493E+03
     24.791  0.6473E+01  0.2494E+03
     24.805  0.7564E+01  0.2495E+03
     24.819  0.6280E+01  0.2496E+03
     24.833  0.7506E+01  0.2497E+03
     24.846  0.2016E+01  0.2497E+03
     24.860  0.3766E+01  0.2498E+03
     24.874  0.1021E+02  0.2499E+03
     24.888  0.7734E+01  0.2500E+03
     24.902  0.8031E+01  0.2502E+03
     24.915  0.3202E+01  0.2502E+03
     24.929  0.6901E+00  0.2502E+03
     24.943  0.5933E+01  0.2503E+03
     24.957  0.5592E+01  0.2504E+03
     24.970  0.3441E+01  0.2504E+03
     24.984  0.5672E+01  0.2505E+03
     24.998  0.5805E+01  0.2506E+03
     25.012  0.7198E+01  0.2507E+03
     25.026  0.5741E+01  0.2508E+03
     25.039  0.3048E+01  0.2508E+03
     25.053  0.3480E+01  0.2508E+03
     25.067  0.8855E+01  0.2510E+03
     25.081  0.1080E+02  0.2511E+03
     25.095  0.9366E+01  0.2512E+03
     25.108  0.5096E+01  0.2513E+03
     25.122  0.7859E+01  0.2514E+03
     25.136  0.5354E+01  0.2515E+03
     25.150  0.7526E+01  0.2516E+03
     25.163  0.7406E+01  0.2517E+03
     25.177  0.4382E+01  0.2518E+03
     25.191  0.1462E+01  0.2518E+03
     25.205  0.4247E+01  0.2518E+03
     25.219  0.7024E+01  0.2519E+03
     25.232  0.6910E+00  0.2519E+03
     25.246  0.1529E+01  0.2520E+03
     25.260  0.8841E+01  0.2521E+03
     25.274  0.9036E+01  0.2522E+03
     25.287  0.3161E+01  0.2523E+03
     25.301  0.2374E+01  0.2523E+03
     25.315  0.5319E+01  0.2524E+03
     25.329  0.1157E+02  0.2525E+03
     25.343  0.3787E+01  0.2526E+03
     25.356  0.1991E+01  0.2526E+03
     25.370  0.4895E+01  0.2527E+03
     25.384  0.2128E+01  0.2527E+03
     25.398  0.2385E+01  0.2527E+03
     25.412  0.5742E+01  0.2528E+03
     25.425  0.1288E+01  0.2528E+03
     25.439  0.2939E+01  0.2529E+03
     25.453  0.5419E+01  0.2529E+03
     25.467  0.4866E+01  0.2530E+03
     25.480  0.4832E+01  0.2531E+03
     25.494  0.5728E+01  0.2532E+03
     25.508  0.6183E+01  0.2532E+03
     25.522  0.3048E+01  0.2533E+03
     25.536  0.8415E+01  0.2534E+03
     25.549  0.1132E+02  0.2536E+03
     25.563  0.7444E+01  0.2537E+03
     25.577  0.6670E+01  0.2537E+03
     25.591  0.5083E+01  0.2538E+03
     25.605  0.5530E+00  0.2538E+03
     25.618  0.1866E-01  0.2538E+03
     25.632  0.8231E+00  0.2538E+03
     25.646  0.3295E+01  0.2539E+03
     25.660  0.1799E+01  0.2539E+03
     25.673  0.9379E-01  0.2539E+03
     25.687  0.3746E-03  0.2539E+03
     25.701  0.1159E+00  0.2539E+03
     25.715  0.2893E+01  0.2540E+03
     25.729  0.6874E+01  0.2540E+03
     25.742  0.6405E+01  0.2541E+03
     25.756  0.5377E+01  0.2542E+03
     25.770  0.5308E+01  0.2543E+03
     25.784  0.6382E+00  0.2543E+03
     25.797  0.3595E-02  0.2543E+03
     25.811  0.7593E-01  0.2543E+03
     25.825  0.3497E+01  0.2543E+03
     25.839  0.1316E+02  0.2545E+03
     25.853  0.4269E+01  0.2546E+03
     25.866  0.8579E-01  0.2546E+03
     25.880  0.8080E-02  0.2546E+03
     25.894  0.2041E+00  0.2546E+03
     25.908  0.2701E+00  0.2546E+03
     25.922  0.2163E-01  0.2546E+03
     25.935  0.2895E+00  0.2546E+03
     25.949  0.2252E+01  0.2546E+03
     25.963  0.2728E+01  0.2547E+03
     25.977  0.7413E+00  0.2547E+03
     25.990  0.1270E-01  0.2547E+03
     26.004  0.7266E-01  0.2547E+03
     26.018  0.1419E+01  0.2547E+03
     26.032  0.2646E+01  0.2547E+03
     26.046  0.4094E+01  0.2548E+03
     26.059  0.7996E+00  0.2548E+03
     26.073  0.2569E-01  0.2548E+03
     26.087  0.9913E+00  0.2548E+03
     26.101  0.5445E+01  0.2549E+03
     26.114  0.5204E+01  0.2550E+03
     26.128  0.3897E+00  0.2550E+03
     26.142  0.2856E-02  0.2550E+03
     26.156  0.2955E+00  0.2550E+03
     26.170  0.2720E+01  0.2550E+03
     26.183  0.4770E+01  0.2551E+03
     26.197  0.1235E+01  0.2551E+03
     26.211  0.3988E+00  0.2551E+03
     26.225  0.4376E+01  0.2552E+03
     26.239  0.7645E+01  0.2553E+03
     26.252  0.2599E+01  0.2553E+03
     26.266  0.5963E-01  0.2553E+03
     26.280  0.6334E-03  0.2553E+03
     26.294  0.1648E+00  0.2553E+03
     26.307  0.1753E+01  0.2553E+03
     26.321  0.1062E+01  0.2553E+03
     26.335  0.1001E+00  0.2553E+03
     26.349  0.3475E+00  0.2553E+03
     26.363  0.8313E+00  0.2554E+03
     26.376  0.1959E+01  0.2554E+03
     26.390  0.3068E+00  0.2554E+03
     26.404  0.1953E-02  0.2554E+03
     26.418  0.2434E-05  0.2554E+03
     26.431  0.7730E-02  0.2554E+03
     26.445  0.8549E+00  0.2554E+03
     26.459  0.4026E+01  0.2555E+03
     26.473  0.1123E+01  0.2555E+03
     26.487  0.1392E-01  0.2555E+03
     26.500  0.5244E-05  0.2555E+03
     26.514  0.5091E-10  0.2555E+03
     26.528  0.9428E-11  0.2555E+03
     26.542  0.7822E-06  0.2555E+03
     26.556  0.1770E-02  0.2555E+03
     26.569  0.1746E+00  0.2555E+03
     26.583  0.1685E+01  0.2555E+03
     26.597  0.1562E+01  0.2555E+03
     26.611  0.9160E-01  0.2555E+03
     26.624  0.8580E-03  0.2555E+03
     26.638  0.1764E+00  0.2555E+03
     26.652  0.1917E+01  0.2555E+03
     26.666  0.2710E+01  0.2556E+03
     26.680  0.1194E+01  0.2556E+03
     26.693  0.1368E+01  0.2556E+03
     26.707  0.6003E+01  0.2557E+03
     26.721  0.1673E+01  0.2557E+03
     26.735  0.2163E-01  0.2557E+03
     26.748  0.8901E-05  0.2557E+03
     26.762  0.5177E-03  0.2557E+03
     26.776  0.2122E+00  0.2557E+03
     26.790  0.3138E+01  0.2558E+03
     26.804  0.2564E+01  0.2558E+03
     26.817  0.1100E+00  0.2558E+03
     26.831  0.1613E-03  0.2558E+03
     26.845  0.6367E-08  0.2558E+03
     26.859  0.6689E-14  0.2558E+03
     26.873  0.4380E-11  0.2558E+03
     26.886  0.4473E-06  0.2558E+03
     26.900  0.1177E-02  0.2558E+03
     26.914  0.9416E-01  0.2558E+03
     26.928  0.3354E+00  0.2558E+03
     26.941  0.7072E-01  0.2558E+03
     26.955  0.6347E-03  0.2558E+03
     26.969  0.1962E-02  0.2558E+03
     26.983  0.3083E+00  0.2558E+03
     26.997  0.2041E+01  0.2558E+03
     27.010  0.1190E+01  0.2559E+03
     27.024  0.1719E+01  0.2559E+03
     27.038  0.1219E+01  0.2559E+03
     27.052  0.4741E-01  0.2559E+03
     27.065  0.6232E-04  0.2559E+03
     27.079  0.2214E-08  0.2559E+03
     27.093  0.1893E-05  0.2559E+03
     27.107  0.5667E-02  0.2559E+03
     27.121  0.5111E+00  0.2559E+03
     27.134  0.2019E+01  0.2559E+03
     27.148  0.4724E+00  0.2559E+03
     27.162  0.5029E-02  0.2559E+03
     27.176  0.4464E-01  0.2559E+03
     27.190  0.3203E+00  0.2559E+03
     27.203  0.1348E+00  0.2560E+03
     27.217  0.1654E+00  0.2560E+03
     27.231  0.1748E+01  0.2560E+03
     27.245  0.1068E+01  0.2560E+03
     27.258  0.3286E-01  0.2560E+03
     27.272  0.3332E-04  0.2560E+03
     27.286  0.8975E-09  0.2560E+03
     27.300  0.6689E-15  0.2560E+03
     27.314  0.0000E+00  0.2560E+03
     27.327  0.0000E+00  0.2560E+03
     27.341  0.0000E+00  0.2560E+03
     27.355  0.0000E+00  0.2560E+03
     27.369  0.0000E+00  0.2560E+03
     27.382  0.0000E+00  0.2560E+03
     27.396  0.0000E+00  0.2560E+03
     27.410  0.0000E+00  0.2560E+03
     27.424  0.0000E+00  0.2560E+03
     27.438  0.0000E+00  0.2560E+03
     27.451  0.0000E+00  0.2560E+03
     27.465  0.0000E+00  0.2560E+03
     27.479  0.0000E+00  0.2560E+03
     27.493  0.0000E+00  0.2560E+03
     27.507  0.0000E+00  0.2560E+03
     27.520  0.0000E+00  0.2560E+03
     27.534  0.0000E+00  0.2560E+03
     27.548  0.0000E+00  0.2560E+03
     27.562  0.0000E+00  0.2560E+03
     27.575  0.0000E+00  0.2560E+03
     27.589  0.0000E+00  0.2560E+03
     27.603  0.0000E+00  0.2560E+03
     27.617  0.0000E+00  0.2560E+03
     27.631  0.5574E-16  0.2560E+03
     27.644  0.7940E-10  0.2560E+03
     27.658  0.3554E-05  0.2560E+03
     27.672  0.4201E-02  0.2560E+03
     27.686  0.1609E+00  0.2560E+03
     27.700  0.3038E+00  0.2560E+03
     27.713  0.3300E-01  0.2560E+03
     27.727  0.1379E-03  0.2560E+03
     27.741  0.1631E-07  0.2560E+03
     27.755  0.4839E-13  0.2560E+03
     27.768  0.0000E+00  0.2560E+03
     27.782  0.0000E+00  0.2560E+03
     27.796  0.0000E+00  0.2560E+03
     27.810  0.0000E+00  0.2560E+03
     27.824  0.0000E+00  0.2560E+03
     27.837  0.0000E+00  0.2560E+03
     27.851  0.0000E+00  0.2560E+03
     27.865  0.0000E+00  0.2560E+03
     27.879  0.0000E+00  0.2560E+03
     27.892  0.0000E+00  0.2560E+03
     27.906  0.0000E+00  0.2560E+03
     27.920  0.0000E+00  0.2560E+03
     27.934  0.0000E+00  0.2560E+03
     27.948  0.0000E+00  0.2560E+03
     27.961  0.0000E+00  0.2560E+03
     27.975  0.0000E+00  0.2560E+03
     27.989  0.0000E+00  0.2560E+03
     28.003  0.0000E+00  0.2560E+03
     28.017  0.0000E+00  0.2560E+03
     28.030  0.0000E+00  0.2560E+03
     28.044  0.0000E+00  0.2560E+03
     28.058  0.0000E+00  0.2560E+03
     28.072  0.0000E+00  0.2560E+03
     28.085  0.0000E+00  0.2560E+03
     28.099  0.0000E+00  0.2560E+03
     28.113  0.0000E+00  0.2560E+03
     28.127  0.0000E+00  0.2560E+03
     28.141  0.0000E+00  0.2560E+03
     28.154  0.0000E+00  0.2560E+03
     28.168  0.0000E+00  0.2560E+03
     28.182  0.0000E+00  0.2560E+03
     28.196  0.0000E+00  0.2560E+03
     28.209  0.0000E+00  0.2560E+03
     28.223  0.0000E+00  0.2560E+03
     28.237  0.0000E+00  0.2560E+03
     28.251  0.0000E+00  0.2560E+03
     28.265  0.0000E+00  0.2560E+03
     28.278  0.0000E+00  0.2560E+03
     28.292  0.0000E+00  0.2560E+03
     28.306  0.0000E+00  0.2560E+03
     28.320  0.0000E+00  0.2560E+03
     28.334  0.0000E+00  0.2560E+03
     28.347  0.0000E+00  0.2560E+03
     28.361  0.0000E+00  0.2560E+03
     28.375  0.0000E+00  0.2560E+03
     28.389  0.0000E+00  0.2560E+03
     28.402  0.0000E+00  0.2560E+03
     28.416  0.0000E+00  0.2560E+03
     28.430  0.0000E+00  0.2560E+03
     28.444  0.0000E+00  0.2560E+03
     28.458  0.0000E+00  0.2560E+03
     28.471  0.0000E+00  0.2560E+03
     28.485  0.0000E+00  0.2560E+03
     28.499  0.0000E+00  0.2560E+03
     28.513  0.0000E+00  0.2560E+03
     28.526  0.0000E+00  0.2560E+03
     28.540  0.0000E+00  0.2560E+03
     28.554  0.0000E+00  0.2560E+03
     28.568  0.0000E+00  0.2560E+03
     28.582  0.0000E+00  0.2560E+03
     28.595  0.0000E+00  0.2560E+03
     28.609  0.0000E+00  0.2560E+03
     28.623  0.0000E+00  0.2560E+03
     28.637  0.0000E+00  0.2560E+03
     28.651  0.0000E+00  0.2560E+03
     28.664  0.0000E+00  0.2560E+03
     28.678  0.0000E+00  0.2560E+03
     28.692  0.0000E+00  0.2560E+03
     28.706  0.0000E+00  0.2560E+03
     28.719  0.0000E+00  0.2560E+03
     28.733  0.0000E+00  0.2560E+03
     28.747  0.0000E+00  0.2560E+03
     28.761  0.0000E+00  0.2560E+03
     28.775  0.0000E+00  0.2560E+03
     28.788  0.0000E+00  0.2560E+03
     28.802  0.0000E+00  0.2560E+03
     28.816  0.0000E+00  0.2560E+03
     28.830  0.0000E+00  0.2560E+03
     28.843  0.0000E+00  0.2560E+03
     28.857  0.0000E+00  0.2560E+03
     28.871  0.0000E+00  0.2560E+03
     28.885  0.0000E+00  0.2560E+03
     28.899  0.0000E+00  0.2560E+03
     28.912  0.0000E+00  0.2560E+03
     28.926  0.0000E+00  0.2560E+03
     28.940  0.0000E+00  0.2560E+03
     28.954  0.0000E+00  0.2560E+03
     28.968  0.0000E+00  0.2560E+03
     28.981  0.0000E+00  0.2560E+03
     28.995  0.0000E+00  0.2560E+03
     29.009  0.0000E+00  0.2560E+03
     29.023  0.0000E+00  0.2560E+03
     29.036  0.0000E+00  0.2560E+03
     29.050  0.0000E+00  0.2560E+03
     29.064  0.0000E+00  0.2560E+03
     29.078  0.0000E+00  0.2560E+03
     29.092  0.0000E+00  0.2560E+03
     29.105  0.0000E+00  0.2560E+03
     29.119  0.0000E+00  0.2560E+03
     29.133  0.0000E+00  0.2560E+03
     29.147  0.0000E+00  0.2560E+03
     29.160  0.0000E+00  0.2560E+03
     29.174  0.0000E+00  0.2560E+03
     29.188  0.0000E+00  0.2560E+03
     29.202  0.0000E+00  0.2560E+03
     29.216  0.0000E+00  0.2560E+03
     29.229  0.0000E+00  0.2560E+03
     29.243  0.0000E+00  0.2560E+03
     29.257  0.0000E+00  0.2560E+03
     29.271  0.0000E+00  0.2560E+03
     29.285  0.0000E+00  0.2560E+03
     29.298  0.0000E+00  0.2560E+03
     29.312  0.0000E+00  0.2560E+03
     29.326  0.0000E+00  0.2560E+03
     29.340  0.0000E+00  0.2560E+03
     29.353  0.0000E+00  0.2560E+03
     29.367  0.0000E+00  0.2560E+03
     29.381  0.0000E+00  0.2560E+03
     29.395  0.0000E+00  0.2560E+03
     29.409  0.0000E+00  0.2560E+03
     29.422  0.0000E+00  0.2560E+03
     29.436  0.0000E+00  0.2560E+03
     29.450  0.0000E+00  0.2560E+03
     29.464  0.0000E+00  0.2560E+03
     29.478  0.0000E+00  0.2560E+03
     29.491  0.0000E+00  0.2560E+03
     29.505  0.0000E+00  0.2560E+03
     29.519  0.0000E+00  0.2560E+03
     29.533  0.0000E+00  0.2560E+03
     29.546  0.0000E+00  0.2560E+03
     29.560  0.0000E+00  0.2560E+03
     29.574  0.0000E+00  0.2560E+03
     29.588  0.0000E+00  0.2560E+03
     29.602  0.0000E+00  0.2560E+03
     29.615  0.0000E+00  0.2560E+03
     29.629  0.0000E+00  0.2560E+03
     29.643  0.0000E+00  0.2560E+03
     29.657  0.0000E+00  0.2560E+03
     29.670  0.0000E+00  0.2560E+03
     29.684  0.0000E+00  0.2560E+03
     29.698  0.0000E+00  0.2560E+03
     29.712  0.0000E+00  0.2560E+03
     29.726  0.0000E+00  0.2560E+03
     29.739  0.0000E+00  0.2560E+03
     29.753  0.0000E+00  0.2560E+03
     29.767  0.0000E+00  0.2560E+03
     29.781  0.0000E+00  0.2560E+03
     29.795  0.0000E+00  0.2560E+03
     29.808  0.0000E+00  0.2560E+03
     29.822  0.0000E+00  0.2560E+03
     29.836  0.0000E+00  0.2560E+03
     29.850  0.0000E+00  0.2560E+03
     29.863  0.0000E+00  0.2560E+03
     29.877  0.0000E+00  0.2560E+03
     29.891  0.0000E+00  0.2560E+03
     29.905  0.0000E+00  0.2560E+03
     29.919  0.0000E+00  0.2560E+03
     29.932  0.0000E+00  0.2560E+03
     29.946  0.0000E+00  0.2560E+03
     29.960  0.0000E+00  0.2560E+03
     29.974  0.0000E+00  0.2560E+03
     29.987  0.0000E+00  0.2560E+03
     30.001  0.0000E+00  0.2560E+03
     30.015  0.0000E+00  0.2560E+03
     30.029  0.0000E+00  0.2560E+03
     30.043  0.0000E+00  0.2560E+03
     30.056  0.0000E+00  0.2560E+03
     30.070  0.0000E+00  0.2560E+03
     30.084  0.0000E+00  0.2560E+03
     30.098  0.0000E+00  0.2560E+03
     30.112  0.0000E+00  0.2560E+03
     30.125  0.0000E+00  0.2560E+03
     30.139  0.0000E+00  0.2560E+03
     30.153  0.0000E+00  0.2560E+03
     30.167  0.0000E+00  0.2560E+03
     30.180  0.0000E+00  0.2560E+03
     30.194  0.0000E+00  0.2560E+03
