  15  15   0   0
  0.2033749E+02  0.4846000E-09  0.4846000E-09  0.1500000E-08  0.5000000E-15
  1.000000000000000E-004
  CAR 
 Dielectric_function                     
     31.74576621    -25.48926081 4000     -0.68553728      1.00000000
    -25.489  0.0000E+00  0.0000E+00
    -25.475  0.0000E+00  0.0000E+00
    -25.461  0.0000E+00  0.0000E+00
    -25.446  0.0000E+00  0.0000E+00
    -25.432  0.0000E+00  0.0000E+00
    -25.418  0.0000E+00  0.0000E+00
    -25.403  0.0000E+00  0.0000E+00
    -25.389  0.0000E+00  0.0000E+00
    -25.375  0.0000E+00  0.0000E+00
    -25.360  0.0000E+00  0.0000E+00
    -25.346  0.0000E+00  0.0000E+00
    -25.332  0.0000E+00  0.0000E+00
    -25.318  0.0000E+00  0.0000E+00
    -25.303  0.0000E+00  0.0000E+00
    -25.289  0.0000E+00  0.0000E+00
    -25.275  0.0000E+00  0.0000E+00
    -25.260  0.0000E+00  0.0000E+00
    -25.246  0.0000E+00  0.0000E+00
    -25.232  0.0000E+00  0.0000E+00
    -25.217  0.0000E+00  0.0000E+00
    -25.203  0.0000E+00  0.0000E+00
    -25.189  0.0000E+00  0.0000E+00
    -25.174  0.0000E+00  0.0000E+00
    -25.160  0.0000E+00  0.0000E+00
    -25.146  0.0000E+00  0.0000E+00
    -25.131  0.0000E+00  0.0000E+00
    -25.117  0.0000E+00  0.0000E+00
    -25.103  0.0000E+00  0.0000E+00
    -25.089  0.0000E+00  0.0000E+00
    -25.074  0.0000E+00  0.0000E+00
    -25.060  0.0000E+00  0.0000E+00
    -25.046  0.0000E+00  0.0000E+00
    -25.031  0.0000E+00  0.0000E+00
    -25.017  0.0000E+00  0.0000E+00
    -25.003  0.0000E+00  0.0000E+00
    -24.988  0.0000E+00  0.0000E+00
    -24.974  0.0000E+00  0.0000E+00
    -24.960  0.0000E+00  0.0000E+00
    -24.945  0.0000E+00  0.0000E+00
    -24.931  0.0000E+00  0.0000E+00
    -24.917  0.0000E+00  0.0000E+00
    -24.902  0.0000E+00  0.0000E+00
    -24.888  0.0000E+00  0.0000E+00
    -24.874  0.0000E+00  0.0000E+00
    -24.860  0.0000E+00  0.0000E+00
    -24.845  0.0000E+00  0.0000E+00
    -24.831  0.0000E+00  0.0000E+00
    -24.817  0.0000E+00  0.0000E+00
    -24.802  0.0000E+00  0.0000E+00
    -24.788  0.0000E+00  0.0000E+00
    -24.774  0.0000E+00  0.0000E+00
    -24.759  0.0000E+00  0.0000E+00
    -24.745  0.0000E+00  0.0000E+00
    -24.731  0.0000E+00  0.0000E+00
    -24.716  0.0000E+00  0.0000E+00
    -24.702  0.0000E+00  0.0000E+00
    -24.688  0.0000E+00  0.0000E+00
    -24.673  0.0000E+00  0.0000E+00
    -24.659  0.0000E+00  0.0000E+00
    -24.645  0.0000E+00  0.0000E+00
    -24.631  0.0000E+00  0.0000E+00
    -24.616  0.0000E+00  0.0000E+00
    -24.602  0.0000E+00  0.0000E+00
    -24.588  0.0000E+00  0.0000E+00
    -24.573  0.0000E+00  0.0000E+00
    -24.559  0.0000E+00  0.0000E+00
    -24.545  0.0000E+00  0.0000E+00
    -24.530  0.0000E+00  0.0000E+00
    -24.516  0.0000E+00  0.0000E+00
    -24.502  0.0000E+00  0.0000E+00
    -24.487  0.0000E+00  0.0000E+00
    -24.473  0.0000E+00  0.0000E+00
    -24.459  0.0000E+00  0.0000E+00
    -24.444  0.0000E+00  0.0000E+00
    -24.430  0.0000E+00  0.0000E+00
    -24.416  0.0000E+00  0.0000E+00
    -24.402  0.0000E+00  0.0000E+00
    -24.387  0.0000E+00  0.0000E+00
    -24.373  0.0000E+00  0.0000E+00
    -24.359  0.0000E+00  0.0000E+00
    -24.344  0.0000E+00  0.0000E+00
    -24.330  0.0000E+00  0.0000E+00
    -24.316  0.0000E+00  0.0000E+00
    -24.301  0.0000E+00  0.0000E+00
    -24.287  0.0000E+00  0.0000E+00
    -24.273  0.0000E+00  0.0000E+00
    -24.258  0.0000E+00  0.0000E+00
    -24.244  0.0000E+00  0.0000E+00
    -24.230  0.0000E+00  0.0000E+00
    -24.215  0.0000E+00  0.0000E+00
    -24.201  0.0000E+00  0.0000E+00
    -24.187  0.0000E+00  0.0000E+00
    -24.173  0.0000E+00  0.0000E+00
    -24.158  0.0000E+00  0.0000E+00
    -24.144  0.0000E+00  0.0000E+00
    -24.130  0.0000E+00  0.0000E+00
    -24.115  0.0000E+00  0.0000E+00
    -24.101  0.0000E+00  0.0000E+00
    -24.087  0.0000E+00  0.0000E+00
    -24.072  0.0000E+00  0.0000E+00
    -24.058  0.0000E+00  0.0000E+00
    -24.044  0.0000E+00  0.0000E+00
    -24.029  0.0000E+00  0.0000E+00
    -24.015  0.0000E+00  0.0000E+00
    -24.001  0.0000E+00  0.0000E+00
    -23.986  0.0000E+00  0.0000E+00
    -23.972  0.0000E+00  0.0000E+00
    -23.958  0.0000E+00  0.0000E+00
    -23.944  0.0000E+00  0.0000E+00
    -23.929  0.0000E+00  0.0000E+00
    -23.915  0.0000E+00  0.0000E+00
    -23.901  0.0000E+00  0.0000E+00
    -23.886  0.0000E+00  0.0000E+00
    -23.872  0.0000E+00  0.0000E+00
    -23.858  0.0000E+00  0.0000E+00
    -23.843  0.0000E+00  0.0000E+00
    -23.829  0.0000E+00  0.0000E+00
    -23.815  0.0000E+00  0.0000E+00
    -23.800  0.0000E+00  0.0000E+00
    -23.786  0.0000E+00  0.0000E+00
    -23.772  0.0000E+00  0.0000E+00
    -23.757  0.0000E+00  0.0000E+00
    -23.743  0.0000E+00  0.0000E+00
    -23.729  0.0000E+00  0.0000E+00
    -23.715  0.0000E+00  0.0000E+00
    -23.700  0.0000E+00  0.0000E+00
    -23.686  0.0000E+00  0.0000E+00
    -23.672  0.0000E+00  0.0000E+00
    -23.657  0.0000E+00  0.0000E+00
    -23.643  0.0000E+00  0.0000E+00
    -23.629  0.0000E+00  0.0000E+00
    -23.614  0.0000E+00  0.0000E+00
    -23.600  0.0000E+00  0.0000E+00
    -23.586  0.0000E+00  0.0000E+00
    -23.571  0.0000E+00  0.0000E+00
    -23.557  0.0000E+00  0.0000E+00
    -23.543  0.0000E+00  0.0000E+00
    -23.528  0.0000E+00  0.0000E+00
    -23.514  0.0000E+00  0.0000E+00
    -23.500  0.0000E+00  0.0000E+00
    -23.486  0.0000E+00  0.0000E+00
    -23.471  0.0000E+00  0.0000E+00
    -23.457  0.0000E+00  0.0000E+00
    -23.443  0.0000E+00  0.0000E+00
    -23.428  0.0000E+00  0.0000E+00
    -23.414  0.0000E+00  0.0000E+00
    -23.400  0.0000E+00  0.0000E+00
    -23.385  0.0000E+00  0.0000E+00
    -23.371  0.0000E+00  0.0000E+00
    -23.357  0.0000E+00  0.0000E+00
    -23.342  0.0000E+00  0.0000E+00
    -23.328  0.0000E+00  0.0000E+00
    -23.314  0.0000E+00  0.0000E+00
    -23.299  0.0000E+00  0.0000E+00
    -23.285  0.0000E+00  0.0000E+00
    -23.271  0.0000E+00  0.0000E+00
    -23.257  0.0000E+00  0.0000E+00
    -23.242  0.0000E+00  0.0000E+00
    -23.228  0.0000E+00  0.0000E+00
    -23.214  0.0000E+00  0.0000E+00
    -23.199  0.0000E+00  0.0000E+00
    -23.185  0.0000E+00  0.0000E+00
    -23.171  0.0000E+00  0.0000E+00
    -23.156  0.0000E+00  0.0000E+00
    -23.142  0.0000E+00  0.0000E+00
    -23.128  0.0000E+00  0.0000E+00
    -23.113  0.0000E+00  0.0000E+00
    -23.099  0.0000E+00  0.0000E+00
    -23.085  0.0000E+00  0.0000E+00
    -23.070  0.0000E+00  0.0000E+00
    -23.056  0.0000E+00  0.0000E+00
    -23.042  0.0000E+00  0.0000E+00
    -23.028  0.0000E+00  0.0000E+00
    -23.013  0.0000E+00  0.0000E+00
    -22.999  0.0000E+00  0.0000E+00
    -22.985  0.0000E+00  0.0000E+00
    -22.970  0.0000E+00  0.0000E+00
    -22.956  0.0000E+00  0.0000E+00
    -22.942  0.5395E-14  0.7722E-16
    -22.927  0.4830E-08  0.6913E-10
    -22.913  0.8052E-04  0.1152E-05
    -22.899  0.2840E-01  0.4077E-03
    -22.884  0.3066E+00  0.4796E-02
    -22.870  0.7883E+00  0.1608E-01
    -22.856  0.1959E+01  0.4411E-01
    -22.841  0.3030E+00  0.4845E-01
    -22.827  0.3367E+00  0.5327E-01
    -22.813  0.1997E+01  0.8184E-01
    -22.799  0.1564E+01  0.1042E+00
    -22.784  0.1754E+01  0.1293E+00
    -22.770  0.1501E+00  0.1315E+00
    -22.756  0.5158E-03  0.1315E+00
    -22.741  0.1184E+00  0.1332E+00
    -22.727  0.2734E+01  0.1723E+00
    -22.713  0.2819E+01  0.2127E+00
    -22.698  0.1507E+00  0.2148E+00
    -22.684  0.9361E+00  0.2282E+00
    -22.670  0.1781E+01  0.2537E+00
    -22.655  0.1642E+00  0.2560E+00
    -22.641  0.5081E-03  0.2561E+00
    -22.627  0.5405E-01  0.2568E+00
    -22.612  0.1332E+01  0.2759E+00
    -22.598  0.2028E+01  0.3049E+00
    -22.584  0.3969E+01  0.3617E+00
    -22.570  0.1304E+01  0.3804E+00
    -22.555  0.1622E-01  0.3806E+00
    -22.541  0.5256E-02  0.3807E+00
    -22.527  0.5401E+00  0.3884E+00
    -22.512  0.1986E+01  0.4169E+00
    -22.498  0.3674E+00  0.4221E+00
    -22.484  0.2283E-02  0.4221E+00
    -22.469  0.3499E-01  0.4226E+00
    -22.455  0.1784E+01  0.4482E+00
    -22.441  0.3624E+01  0.5000E+00
    -22.426  0.3691E+00  0.5053E+00
    -22.412  0.1071E+01  0.5206E+00
    -22.398  0.3975E+01  0.5775E+00
    -22.383  0.7430E+00  0.5882E+00
    -22.369  0.4642E-02  0.5882E+00
    -22.355  0.6572E-06  0.5882E+00
    -22.341  0.2879E-03  0.5882E+00
    -22.326  0.1299E+00  0.5901E+00
    -22.312  0.1693E+01  0.6143E+00
    -22.298  0.1051E+01  0.6294E+00
    -22.283  0.7991E-01  0.6305E+00
    -22.269  0.1322E+01  0.6494E+00
    -22.255  0.2036E+01  0.6786E+00
    -22.240  0.3969E+01  0.7354E+00
    -22.226  0.1307E+01  0.7541E+00
    -22.212  0.1631E-01  0.7543E+00
    -22.197  0.1147E-01  0.7545E+00
    -22.183  0.1123E+01  0.7706E+00
    -22.169  0.3962E+01  0.8273E+00
    -22.154  0.7023E+00  0.8373E+00
    -22.140  0.4122E-02  0.8374E+00
    -22.126  0.5350E-06  0.8374E+00
    -22.112  0.9483E-11  0.8374E+00
    -22.097  0.1663E-05  0.8374E+00
    -22.083  0.6531E-02  0.8375E+00
    -22.069  0.5945E+00  0.8460E+00
    -22.054  0.2099E+01  0.8760E+00
    -22.040  0.3128E+01  0.9208E+00
    -22.026  0.2755E+01  0.9602E+00
    -22.011  0.1690E+00  0.9626E+00
    -21.997  0.2011E+01  0.9914E+00
    -21.983  0.3458E+01  0.1041E+01
    -21.968  0.2854E+00  0.1045E+01
    -21.954  0.6881E-03  0.1045E+01
    -21.940  0.6860E-06  0.1045E+01
    -21.925  0.4675E-02  0.1045E+01
    -21.911  0.7456E+00  0.1056E+01
    -21.897  0.3975E+01  0.1113E+01
    -21.883  0.1067E+01  0.1128E+01
    -21.868  0.1020E-01  0.1128E+01
    -21.854  0.2238E-05  0.1128E+01
    -21.840  0.1119E-10  0.1128E+01
    -21.825  0.5507E-06  0.1128E+01
    -21.811  0.3266E-02  0.1128E+01
    -21.797  0.4359E+00  0.1134E+01
    -21.782  0.2108E+01  0.1164E+01
    -21.768  0.3983E+01  0.1222E+01
    -21.754  0.4772E+01  0.1290E+01
    -21.739  0.3016E+00  0.1294E+01
    -21.725  0.9735E-03  0.1294E+01
    -21.711  0.2242E+00  0.1297E+01
    -21.696  0.3268E+01  0.1344E+01
    -21.682  0.2245E+01  0.1376E+01
    -21.668  0.6512E-01  0.1377E+01
    -21.654  0.4812E-04  0.1377E+01
    -21.639  0.7087E-09  0.1377E+01
    -21.625  0.3452E-07  0.1377E+01
    -21.611  0.6843E-03  0.1377E+01
    -21.596  0.2846E+00  0.1381E+01
    -21.582  0.3455E+01  0.1431E+01
    -21.568  0.2013E+01  0.1460E+01
    -21.553  0.4818E-01  0.1460E+01
    -21.539  0.2875E-04  0.1460E+01
    -21.525  0.3941E-04  0.1460E+01
    -21.510  0.5797E-01  0.1461E+01
    -21.496  0.2154E+01  0.1492E+01
    -21.482  0.3344E+01  0.1540E+01
    -21.467  0.2679E+00  0.1544E+01
    -21.453  0.1468E+01  0.1565E+01
    -21.439  0.3909E+01  0.1621E+01
    -21.425  0.2039E+01  0.1650E+01
    -21.410  0.1224E+01  0.1667E+01
    -21.396  0.4178E-01  0.1668E+01
    -21.382  0.2218E-02  0.1668E+01
    -21.367  0.5153E+00  0.1675E+01
    -21.353  0.3841E+01  0.1730E+01
    -21.339  0.1424E+01  0.1751E+01
    -21.324  0.1997E-01  0.1751E+01
    -21.310  0.6631E-05  0.1751E+01
    -21.296  0.4276E-10  0.1751E+01
    -21.281  0.4831E-15  0.1751E+01
    -21.267  0.1128E-08  0.1751E+01
    -21.253  0.5763E-04  0.1751E+01
    -21.238  0.6413E-01  0.1752E+01
    -21.224  0.2103E+01  0.1782E+01
    -21.210  0.3343E+01  0.1830E+01
    -21.196  0.3041E+00  0.1834E+01
    -21.181  0.7804E+00  0.1845E+01
    -21.167  0.2100E+01  0.1875E+01
    -21.153  0.3463E+01  0.1925E+01
    -21.138  0.2281E+01  0.1958E+01
    -21.124  0.6809E-01  0.1958E+01
    -21.110  0.4058E-02  0.1959E+01
    -21.095  0.6330E+00  0.1968E+01
    -21.081  0.3825E+01  0.2022E+01
    -21.067  0.1321E+01  0.2041E+01
    -21.052  0.1708E+00  0.2044E+01
    -21.038  0.1750E+01  0.2069E+01
    -21.024  0.9778E+00  0.2083E+01
    -21.010  0.2227E-01  0.2083E+01
    -20.995  0.5995E-02  0.2083E+01
    -20.981  0.8368E+00  0.2095E+01
    -20.967  0.3992E+01  0.2152E+01
    -20.952  0.9595E+00  0.2166E+01
    -20.938  0.8063E-02  0.2166E+01
    -20.924  0.1537E-05  0.2166E+01
    -20.909  0.5607E-11  0.2166E+01
    -20.895  0.0000E+00  0.2166E+01
    -20.881  0.0000E+00  0.2166E+01
    -20.866  0.1255E-10  0.2166E+01
    -20.852  0.2807E-05  0.2166E+01
    -20.838  0.1347E-01  0.2166E+01
    -20.823  0.1668E+01  0.2190E+01
    -20.809  0.7886E+01  0.2303E+01
    -20.795  0.2020E+01  0.2332E+01
    -20.781  0.5402E+00  0.2340E+01
    -20.766  0.3846E+01  0.2395E+01
    -20.752  0.1414E+01  0.2415E+01
    -20.738  0.1964E-01  0.2415E+01
    -20.723  0.6456E-05  0.2415E+01
    -20.709  0.2116E-03  0.2415E+01
    -20.695  0.1509E+00  0.2417E+01
    -20.680  0.2939E+01  0.2459E+01
    -20.666  0.2610E+01  0.2497E+01
    -20.652  0.1021E+00  0.2498E+01
    -20.637  0.9449E-03  0.2498E+01
    -20.623  0.2260E+00  0.2502E+01
    -20.609  0.1885E+01  0.2528E+01
    -20.594  0.7767E+00  0.2540E+01
    -20.580  0.1235E-01  0.2540E+01
    -20.566  0.1432E-01  0.2540E+01
    -20.552  0.1237E+01  0.2558E+01
    -20.537  0.3924E+01  0.2614E+01
    -20.523  0.6238E+00  0.2623E+01
    -20.509  0.3221E-02  0.2623E+01
    -20.494  0.3647E-06  0.2623E+01
    -20.480  0.2329E-09  0.2623E+01
    -20.466  0.1791E-04  0.2623E+01
    -20.451  0.2741E-01  0.2623E+01
    -20.437  0.1057E+01  0.2638E+01
    -20.423  0.2129E+01  0.2669E+01
    -20.408  0.3764E+01  0.2723E+01
    -20.394  0.1690E+01  0.2747E+01
    -20.380  0.2115E+00  0.2750E+01
    -20.365  0.3076E+01  0.2794E+01
    -20.351  0.3567E+01  0.2845E+01
    -20.337  0.4056E+01  0.2903E+01
    -20.323  0.7252E+00  0.2913E+01
    -20.308  0.4409E-02  0.2913E+01
    -20.294  0.5941E-06  0.2913E+01
    -20.280  0.1186E-09  0.2913E+01
    -20.265  0.1357E-04  0.2913E+01
    -20.251  0.3082E-01  0.2914E+01
    -20.237  0.1697E+01  0.2938E+01
    -20.222  0.3682E+01  0.2991E+01
    -20.208  0.3913E+00  0.2997E+01
    -20.194  0.1263E-02  0.2997E+01
    -20.179  0.4705E-06  0.2997E+01
    -20.165  0.2596E-02  0.2997E+01
    -20.151  0.3916E+00  0.3002E+01
    -20.136  0.1992E+01  0.3031E+01
    -20.122  0.5103E+00  0.3038E+01
    -20.108  0.4648E-02  0.3038E+01
    -20.094  0.4575E-01  0.3039E+01
    -20.079  0.1975E+01  0.3067E+01
    -20.065  0.3485E+01  0.3117E+01
    -20.051  0.2958E+00  0.3121E+01
    -20.036  0.1754E-02  0.3121E+01
    -20.022  0.3500E+00  0.3126E+01
    -20.008  0.3606E+01  0.3178E+01
    -19.993  0.1809E+01  0.3204E+01
    -19.979  0.2463E+00  0.3207E+01
    -19.965  0.3214E+01  0.3253E+01
    -19.950  0.2307E+01  0.3286E+01
    -19.936  0.7046E-01  0.3287E+01
    -19.922  0.5512E-04  0.3287E+01
    -19.907  0.1153E-03  0.3287E+01
    -19.893  0.1276E+00  0.3289E+01
    -19.879  0.4260E+01  0.3350E+01
    -19.865  0.6676E+01  0.3446E+01
    -19.850  0.5397E+00  0.3453E+01
    -19.836  0.1368E-02  0.3453E+01
    -19.822  0.7650E-07  0.3453E+01
    -19.807  0.8203E-13  0.3453E+01
    -19.793  0.9819E-11  0.3453E+01
    -19.779  0.2305E-05  0.3453E+01
    -19.764  0.1040E-01  0.3453E+01
    -19.750  0.1075E+01  0.3469E+01
    -19.736  0.3973E+01  0.3526E+01
    -19.721  0.7386E+00  0.3536E+01
    -19.707  0.4650E-02  0.3536E+01
    -19.693  0.2592E-01  0.3537E+01
    -19.678  0.3780E+00  0.3542E+01
    -19.664  0.1680E+01  0.3566E+01
    -19.650  0.1300E+01  0.3585E+01
    -19.636  0.2005E+01  0.3613E+01
    -19.621  0.4276E+01  0.3675E+01
    -19.607  0.2193E+01  0.3706E+01
    -19.593  0.2346E+00  0.3709E+01
    -19.578  0.1179E+01  0.3726E+01
    -19.564  0.9351E+01  0.3860E+01
    -19.550  0.5905E+01  0.3945E+01
    -19.535  0.5520E+01  0.4024E+01
    -19.521  0.1232E+01  0.4041E+01
    -19.507  0.1089E+00  0.4043E+01
    -19.492  0.1925E+01  0.4070E+01
    -19.478  0.7456E+01  0.4177E+01
    -19.464  0.4870E+01  0.4247E+01
    -19.449  0.2357E+00  0.4250E+01
    -19.435  0.1452E+01  0.4271E+01
    -19.421  0.1323E+01  0.4290E+01
    -19.407  0.2123E+00  0.4293E+01
    -19.392  0.3004E+01  0.4336E+01
    -19.378  0.4617E+01  0.4402E+01
    -19.364  0.7954E+01  0.4516E+01
    -19.349  0.1982E+01  0.4544E+01
    -19.335  0.3561E+01  0.4595E+01
    -19.321  0.2247E+01  0.4627E+01
    -19.306  0.2068E+01  0.4657E+01
    -19.292  0.1847E+01  0.4683E+01
    -19.278  0.3111E+01  0.4728E+01
    -19.263  0.3831E+01  0.4783E+01
    -19.249  0.9040E+00  0.4796E+01
    -19.235  0.3799E+01  0.4850E+01
    -19.220  0.2177E+01  0.4881E+01
    -19.206  0.3917E+01  0.4937E+01
    -19.192  0.1734E+01  0.4962E+01
    -19.178  0.2456E+01  0.4997E+01
    -19.163  0.4460E+01  0.5061E+01
    -19.149  0.5059E+01  0.5133E+01
    -19.135  0.2035E+01  0.5163E+01
    -19.120  0.1975E+01  0.5191E+01
    -19.106  0.3545E+01  0.5242E+01
    -19.092  0.2113E+01  0.5272E+01
    -19.077  0.6477E+01  0.5365E+01
    -19.063  0.6571E+01  0.5459E+01
    -19.049  0.9724E+01  0.5598E+01
    -19.034  0.2882E+01  0.5639E+01
    -19.020  0.9616E+01  0.5777E+01
    -19.006  0.7230E+01  0.5880E+01
    -18.991  0.3057E+01  0.5924E+01
    -18.977  0.7318E+01  0.6029E+01
    -18.963  0.1131E+02  0.6190E+01
    -18.949  0.5358E+01  0.6267E+01
    -18.934  0.3708E+01  0.6320E+01
    -18.920  0.3411E+01  0.6369E+01
    -18.906  0.4974E+01  0.6440E+01
    -18.891  0.1867E+01  0.6467E+01
    -18.877  0.1604E+01  0.6490E+01
    -18.863  0.1027E+00  0.6491E+01
    -18.848  0.8733E-03  0.6491E+01
    -18.834  0.2852E+00  0.6495E+01
    -18.820  0.3457E+01  0.6545E+01
    -18.805  0.2011E+01  0.6574E+01
    -18.791  0.2365E+00  0.6577E+01
    -18.777  0.3125E+01  0.6622E+01
    -18.762  0.2408E+01  0.6656E+01
    -18.748  0.7991E-01  0.6657E+01
    -18.734  0.6856E-04  0.6657E+01
    -18.720  0.1179E-08  0.6657E+01
    -18.705  0.6442E-14  0.6657E+01
    -18.691  0.1021E-07  0.6657E+01
    -18.677  0.3015E-03  0.6657E+01
    -18.662  0.1833E+00  0.6660E+01
    -18.648  0.3102E+01  0.6704E+01
    -18.634  0.2434E+01  0.6739E+01
    -18.619  0.8247E-01  0.6740E+01
    -18.605  0.9746E-02  0.6741E+01
    -18.591  0.7030E+00  0.6751E+01
    -18.576  0.2175E+01  0.6782E+01
    -18.562  0.3616E+01  0.6834E+01
    -18.548  0.2143E+01  0.6864E+01
    -18.533  0.5708E-01  0.6865E+01
    -18.519  0.2172E-01  0.6865E+01
    -18.505  0.1849E+01  0.6892E+01
    -18.491  0.5879E+01  0.6976E+01
    -18.476  0.9479E+00  0.6990E+01
    -18.462  0.5472E-02  0.6990E+01
    -18.448  0.2020E+00  0.6993E+01
    -18.433  0.3111E+01  0.7037E+01
    -18.419  0.2402E+01  0.7071E+01
    -18.405  0.3186E+00  0.7076E+01
    -18.390  0.3296E+01  0.7123E+01
    -18.376  0.2211E+01  0.7155E+01
    -18.362  0.6244E-01  0.7156E+01
    -18.347  0.4475E-04  0.7156E+01
    -18.333  0.6387E-09  0.7156E+01
    -18.319  0.0000E+00  0.7156E+01
    -18.304  0.0000E+00  0.7156E+01
    -18.290  0.9299E-10  0.7156E+01
    -18.276  0.1153E-04  0.7156E+01
    -18.262  0.2794E-01  0.7156E+01
    -18.247  0.1632E+01  0.7179E+01
    -18.233  0.3723E+01  0.7233E+01
    -18.219  0.4176E+00  0.7239E+01
    -18.204  0.3823E-02  0.7239E+01
    -18.190  0.5388E+00  0.7247E+01
    -18.176  0.3863E+01  0.7302E+01
    -18.161  0.1380E+01  0.7322E+01
    -18.147  0.1852E-01  0.7322E+01
    -18.133  0.5862E-05  0.7322E+01
    -18.118  0.3599E-10  0.7322E+01
    -18.104  0.5814E-11  0.7322E+01
    -18.090  0.1770E-05  0.7322E+01
    -18.075  0.1059E-01  0.7322E+01
    -18.061  0.1502E+01  0.7343E+01
    -18.047  0.7810E+01  0.7455E+01
    -18.033  0.2259E+01  0.7488E+01
    -18.018  0.7284E+00  0.7498E+01
    -18.004  0.3892E+01  0.7554E+01
    -17.990  0.1190E+01  0.7571E+01
    -17.975  0.1489E-01  0.7571E+01
    -17.961  0.8631E-05  0.7571E+01
    -17.947  0.1284E-01  0.7571E+01
    -17.932  0.1117E+01  0.7587E+01
    -17.918  0.3913E+01  0.7643E+01
    -17.904  0.8482E+00  0.7655E+01
    -17.889  0.1565E+01  0.7678E+01
    -17.875  0.1207E+01  0.7695E+01
    -17.861  0.4029E-01  0.7696E+01
    -17.846  0.2689E-01  0.7696E+01
    -17.832  0.1607E+01  0.7719E+01
    -17.818  0.3827E+01  0.7774E+01
    -17.804  0.2833E+01  0.7814E+01
    -17.789  0.3105E+01  0.7859E+01
    -17.775  0.2048E+00  0.7862E+01
    -17.761  0.4260E-03  0.7862E+01
    -17.746  0.2004E-07  0.7862E+01
    -17.732  0.1836E-13  0.7862E+01
    -17.718  0.0000E+00  0.7862E+01
    -17.703  0.0000E+00  0.7862E+01
    -17.689  0.5783E-10  0.7862E+01
    -17.675  0.7338E-05  0.7862E+01
    -17.660  0.1938E-01  0.7862E+01
    -17.646  0.1340E+01  0.7881E+01
    -17.632  0.3841E+01  0.7936E+01
    -17.617  0.5988E+00  0.7945E+01
    -17.603  0.3379E-02  0.7945E+01
    -17.589  0.3609E-01  0.7945E+01
    -17.575  0.1747E+01  0.7970E+01
    -17.560  0.3625E+01  0.8022E+01
    -17.546  0.3929E+00  0.8028E+01
    -17.532  0.2253E-02  0.8028E+01
    -17.517  0.2265E+00  0.8031E+01
    -17.503  0.1961E+01  0.8059E+01
    -17.489  0.3137E+01  0.8104E+01
    -17.474  0.3180E+01  0.8149E+01
    -17.460  0.4378E+00  0.8156E+01
    -17.446  0.3273E+01  0.8203E+01
    -17.431  0.3960E+01  0.8259E+01
    -17.417  0.3745E+01  0.8313E+01
    -17.403  0.3859E+00  0.8318E+01
    -17.388  0.1230E-02  0.8318E+01
    -17.374  0.8612E-07  0.8318E+01
    -17.360  0.1214E-03  0.8318E+01
    -17.346  0.1106E+00  0.8320E+01
    -17.331  0.2677E+01  0.8358E+01
    -17.317  0.2879E+01  0.8399E+01
    -17.303  0.6566E+00  0.8409E+01
    -17.288  0.1991E+01  0.8437E+01
    -17.274  0.3861E+00  0.8443E+01
    -17.260  0.4499E-02  0.8443E+01
    -17.245  0.4668E+00  0.8450E+01
    -17.231  0.3732E+01  0.8503E+01
    -17.217  0.1678E+01  0.8527E+01
    -17.202  0.2654E+01  0.8565E+01
    -17.188  0.2924E+01  0.8607E+01
    -17.174  0.1482E+00  0.8609E+01
    -17.159  0.2049E-03  0.8609E+01
    -17.145  0.5788E-08  0.8609E+01
    -17.131  0.2577E-14  0.8609E+01
    -17.117  0.0000E+00  0.8609E+01
    -17.102  0.1355E-10  0.8609E+01
    -17.088  0.2910E-05  0.8609E+01
    -17.074  0.1213E-01  0.8609E+01
    -17.059  0.1258E+01  0.8627E+01
    -17.045  0.7648E+01  0.8737E+01
    -17.031  0.7633E+01  0.8846E+01
    -17.016  0.8527E+00  0.8858E+01
    -17.002  0.4605E+00  0.8865E+01
    -16.988  0.5513E+01  0.8944E+01
    -16.973  0.5247E+01  0.9019E+01
    -16.959  0.4941E+00  0.9026E+01
    -16.945  0.2738E+01  0.9065E+01
    -16.930  0.6977E+01  0.9165E+01
    -16.916  0.6876E+01  0.9263E+01
    -16.902  0.6294E+01  0.9353E+01
    -16.888  0.9139E+01  0.9484E+01
    -16.873  0.6316E+01  0.9575E+01
    -16.859  0.9327E+00  0.9588E+01
    -16.845  0.4035E+01  0.9646E+01
    -16.830  0.6457E+01  0.9738E+01
    -16.816  0.4139E+01  0.9797E+01
    -16.802  0.3294E+01  0.9844E+01
    -16.787  0.4195E+01  0.9904E+01
    -16.773  0.3353E+01  0.9952E+01
    -16.759  0.6059E+01  0.1004E+02
    -16.744  0.6266E+01  0.1013E+02
    -16.730  0.2505E+01  0.1016E+02
    -16.716  0.1525E+01  0.1019E+02
    -16.701  0.5814E+01  0.1027E+02
    -16.687  0.6280E+01  0.1036E+02
    -16.673  0.6043E+01  0.1045E+02
    -16.659  0.7405E+00  0.1046E+02
    -16.644  0.4001E-02  0.1046E+02
    -16.630  0.5076E-06  0.1046E+02
    -16.616  0.1219E-03  0.1046E+02
    -16.601  0.1132E+00  0.1046E+02
    -16.587  0.3224E+01  0.1050E+02
    -16.573  0.6774E+01  0.1060E+02
    -16.558  0.2612E+01  0.1064E+02
    -16.544  0.1666E+01  0.1066E+02
    -16.530  0.1160E+00  0.1066E+02
    -16.515  0.2330E-03  0.1066E+02
    -16.501  0.1458E-05  0.1066E+02
    -16.487  0.5993E-02  0.1066E+02
    -16.472  0.5775E+00  0.1067E+02
    -16.458  0.2781E+01  0.1071E+02
    -16.444  0.5340E+01  0.1079E+02
    -16.430  0.2854E+01  0.1083E+02
    -16.415  0.1749E+01  0.1085E+02
    -16.401  0.1292E+01  0.1087E+02
    -16.387  0.1797E+01  0.1090E+02
    -16.372  0.3024E+01  0.1094E+02
    -16.358  0.7966E+01  0.1106E+02
    -16.344  0.5075E+01  0.1113E+02
    -16.329  0.5618E+01  0.1121E+02
    -16.315  0.5090E+01  0.1128E+02
    -16.301  0.3309E+01  0.1133E+02
    -16.286  0.5073E+01  0.1140E+02
    -16.272  0.3355E+01  0.1145E+02
    -16.258  0.2142E+00  0.1145E+02
    -16.243  0.4012E-03  0.1145E+02
    -16.229  0.1733E-04  0.1145E+02
    -16.215  0.3566E-01  0.1145E+02
    -16.201  0.1797E+01  0.1148E+02
    -16.186  0.3615E+01  0.1153E+02
    -16.172  0.4390E+00  0.1154E+02
    -16.158  0.1980E+01  0.1157E+02
    -16.143  0.6094E+01  0.1165E+02
    -16.129  0.5575E+01  0.1173E+02
    -16.115  0.7687E+00  0.1174E+02
    -16.100  0.4931E-02  0.1174E+02
    -16.086  0.1747E+00  0.1175E+02
    -16.072  0.3061E+01  0.1179E+02
    -16.057  0.2479E+01  0.1183E+02
    -16.043  0.8779E-01  0.1183E+02
    -16.029  0.2798E+00  0.1183E+02
    -16.014  0.3527E+01  0.1188E+02
    -16.000  0.3548E+01  0.1193E+02
    -15.986  0.1338E+01  0.1195E+02
    -15.972  0.2192E+01  0.1198E+02
    -15.957  0.8680E+01  0.1211E+02
    -15.943  0.3745E+01  0.1216E+02
    -15.929  0.3208E+01  0.1221E+02
    -15.914  0.2413E+01  0.1224E+02
    -15.900  0.8054E-01  0.1224E+02
    -15.886  0.1188E+00  0.1224E+02
    -15.871  0.3017E+01  0.1229E+02
    -15.857  0.7122E+01  0.1239E+02
    -15.843  0.5386E+01  0.1247E+02
    -15.828  0.3216E+01  0.1251E+02
    -15.814  0.7919E+01  0.1263E+02
    -15.800  0.6420E+01  0.1272E+02
    -15.785  0.6173E+01  0.1281E+02
    -15.771  0.6744E+01  0.1290E+02
    -15.757  0.7364E+01  0.1301E+02
    -15.743  0.4395E+01  0.1307E+02
    -15.728  0.2580E+01  0.1311E+02
    -15.714  0.7637E+01  0.1322E+02
    -15.700  0.4634E+01  0.1328E+02
    -15.685  0.4564E+01  0.1335E+02
    -15.671  0.2418E+01  0.1338E+02
    -15.657  0.4455E+00  0.1339E+02
    -15.642  0.4789E+01  0.1346E+02
    -15.628  0.4316E+01  0.1352E+02
    -15.614  0.4055E+01  0.1358E+02
    -15.599  0.5509E+01  0.1366E+02
    -15.585  0.1404E+01  0.1368E+02
    -15.571  0.4283E+01  0.1374E+02
    -15.557  0.7781E+01  0.1385E+02
    -15.542  0.2202E+01  0.1388E+02
    -15.528  0.1038E+00  0.1388E+02
    -15.514  0.1074E+00  0.1388E+02
    -15.499  0.1743E+01  0.1391E+02
    -15.485  0.4307E+01  0.1397E+02
    -15.471  0.6314E+01  0.1406E+02
    -15.456  0.2475E+01  0.1410E+02
    -15.442  0.2160E+01  0.1413E+02
    -15.428  0.3016E+01  0.1417E+02
    -15.413  0.3555E+01  0.1422E+02
    -15.399  0.3233E+01  0.1427E+02
    -15.385  0.4780E+01  0.1434E+02
    -15.370  0.5360E+01  0.1441E+02
    -15.356  0.1624E+01  0.1444E+02
    -15.342  0.8482E+00  0.1445E+02
    -15.328  0.2069E+01  0.1448E+02
    -15.313  0.2073E+01  0.1451E+02
    -15.299  0.8052E+00  0.1452E+02
    -15.285  0.1348E-01  0.1452E+02
    -15.270  0.3387E-04  0.1452E+02
    -15.256  0.4785E-01  0.1452E+02
    -15.242  0.2008E+01  0.1455E+02
    -15.227  0.3459E+01  0.1460E+02
    -15.213  0.2862E+00  0.1460E+02
    -15.199  0.6921E-03  0.1460E+02
    -15.184  0.3514E-07  0.1460E+02
    -15.170  0.4608E-12  0.1460E+02
    -15.156  0.2201E-06  0.1460E+02
    -15.141  0.2217E-02  0.1460E+02
    -15.127  0.5063E+00  0.1461E+02
    -15.113  0.3805E+01  0.1466E+02
    -15.099  0.1466E+01  0.1468E+02
    -15.084  0.5220E-01  0.1469E+02
    -15.070  0.1675E+01  0.1471E+02
    -15.056  0.3696E+01  0.1476E+02
    -15.041  0.4004E+00  0.1477E+02
    -15.027  0.2946E-01  0.1477E+02
    -15.013  0.1986E+01  0.1480E+02
    -14.998  0.5778E+01  0.1488E+02
    -14.984  0.1328E+01  0.1490E+02
    -14.970  0.3732E+01  0.1495E+02
    -14.955  0.1625E+01  0.1498E+02
    -14.941  0.2763E-01  0.1498E+02
    -14.927  0.1132E-04  0.1498E+02
    -14.912  0.9066E-10  0.1498E+02
    -14.898  0.0000E+00  0.1498E+02
    -14.884  0.2308E-14  0.1498E+02
    -14.870  0.3988E-08  0.1498E+02
    -14.855  0.1276E-03  0.1498E+02
    -14.841  0.8487E-01  0.1498E+02
    -14.827  0.1790E+01  0.1500E+02
    -14.812  0.3235E+01  0.1505E+02
    -14.798  0.2563E+01  0.1509E+02
    -14.784  0.3637E+01  0.1514E+02
    -14.769  0.2559E+01  0.1517E+02
    -14.755  0.5588E+01  0.1525E+02
    -14.741  0.8463E+00  0.1527E+02
    -14.726  0.2277E+00  0.1527E+02
    -14.712  0.3263E+01  0.1532E+02
    -14.698  0.2250E+01  0.1535E+02
    -14.683  0.6656E-01  0.1535E+02
    -14.669  0.3421E+00  0.1535E+02
    -14.655  0.3590E+01  0.1541E+02
    -14.641  0.1832E+01  0.1543E+02
    -14.626  0.3748E-01  0.1543E+02
    -14.612  0.1882E-04  0.1543E+02
    -14.598  0.3084E-07  0.1543E+02
    -14.583  0.5593E-03  0.1543E+02
    -14.569  0.2343E+00  0.1544E+02
    -14.555  0.3196E+01  0.1548E+02
    -14.540  0.2292E+01  0.1551E+02
    -14.526  0.1123E+00  0.1552E+02
    -14.512  0.2631E+01  0.1555E+02
    -14.497  0.7779E+01  0.1567E+02
    -14.483  0.1156E+01  0.1568E+02
    -14.469  0.5555E-02  0.1568E+02
    -14.454  0.5883E-06  0.1568E+02
    -14.440  0.1187E-11  0.1568E+02
    -14.426  0.9142E-13  0.1568E+02
    -14.412  0.7477E-07  0.1568E+02
    -14.397  0.1144E-02  0.1568E+02
    -14.383  0.3718E+00  0.1569E+02
    -14.369  0.3648E+01  0.1574E+02
    -14.354  0.1748E+01  0.1576E+02
    -14.340  0.3342E-01  0.1576E+02
    -14.326  0.1398E+00  0.1577E+02
    -14.311  0.2874E+01  0.1581E+02
    -14.297  0.2678E+01  0.1585E+02
    -14.283  0.2922E+00  0.1585E+02
    -14.268  0.3698E+01  0.1590E+02
    -14.254  0.6380E+01  0.1599E+02
    -14.240  0.1330E+01  0.1601E+02
    -14.225  0.1461E-01  0.1601E+02
    -14.211  0.3954E-05  0.1601E+02
    -14.197  0.2077E-10  0.1601E+02
    -14.183  0.0000E+00  0.1601E+02
    -14.168  0.0000E+00  0.1601E+02
    -14.154  0.0000E+00  0.1601E+02
    -14.140  0.0000E+00  0.1601E+02
    -14.125  0.4243E-11  0.1601E+02
    -14.111  0.1118E-05  0.1601E+02
    -14.097  0.6174E-02  0.1601E+02
    -14.082  0.9146E+00  0.1603E+02
    -14.068  0.5643E+01  0.1611E+02
    -14.054  0.2719E+01  0.1615E+02
    -14.039  0.3954E+01  0.1620E+02
    -14.025  0.1255E+01  0.1622E+02
    -14.011  0.1901E-01  0.1622E+02
    -13.996  0.4882E+00  0.1623E+02
    -13.982  0.1995E+01  0.1626E+02
    -13.968  0.4110E+00  0.1626E+02
    -13.954  0.1743E+00  0.1627E+02
    -13.939  0.3009E+01  0.1631E+02
    -13.925  0.2525E+01  0.1634E+02
    -13.911  0.9637E-01  0.1635E+02
    -13.896  0.1016E-03  0.1635E+02
    -13.882  0.2266E-08  0.1635E+02
    -13.868  0.4999E-08  0.1635E+02
    -13.853  0.1854E-03  0.1635E+02
    -13.839  0.1402E+00  0.1635E+02
    -13.825  0.2877E+01  0.1639E+02
    -13.810  0.2807E+01  0.1643E+02
    -13.796  0.2942E+01  0.1647E+02
    -13.782  0.2721E+01  0.1651E+02
    -13.767  0.1165E+00  0.1651E+02
    -13.753  0.1331E-03  0.1651E+02
    -13.739  0.4385E-05  0.1651E+02
    -13.725  0.1549E-01  0.1651E+02
    -13.710  0.1279E+01  0.1653E+02
    -13.696  0.3908E+01  0.1659E+02
    -13.682  0.5971E+00  0.1660E+02
    -13.667  0.2944E-02  0.1660E+02
    -13.653  0.3173E-06  0.1660E+02
    -13.639  0.6562E-12  0.1660E+02
    -13.624  0.1283E-07  0.1660E+02
    -13.610  0.3108E-03  0.1660E+02
    -13.596  0.1726E+00  0.1660E+02
    -13.581  0.3507E+01  0.1665E+02
    -13.567  0.6488E+01  0.1674E+02
    -13.553  0.1420E+01  0.1676E+02
    -13.538  0.1642E-01  0.1676E+02
    -13.524  0.4751E-05  0.1676E+02
    -13.510  0.5130E-04  0.1676E+02
    -13.496  0.6759E-01  0.1676E+02
    -13.481  0.2274E+01  0.1679E+02
    -13.467  0.3243E+01  0.1684E+02
    -13.453  0.2175E+00  0.1684E+02
    -13.438  0.4134E-03  0.1684E+02
    -13.424  0.2447E-02  0.1684E+02
    -13.410  0.5454E+00  0.1685E+02
    -13.395  0.3869E+01  0.1691E+02
    -13.381  0.1368E+01  0.1693E+02
    -13.367  0.1814E-01  0.1693E+02
    -13.352  0.5671E-05  0.1693E+02
    -13.338  0.6292E-04  0.1693E+02
    -13.324  0.7605E-01  0.1693E+02
    -13.309  0.2368E+01  0.1696E+02
    -13.295  0.3161E+01  0.1701E+02
    -13.281  0.1968E+00  0.1701E+02
    -13.267  0.3434E-03  0.1701E+02
    -13.252  0.1242E-07  0.1701E+02
    -13.238  0.5681E-05  0.1701E+02
    -13.224  0.1385E-01  0.1701E+02
    -13.209  0.8134E+00  0.1702E+02
    -13.195  0.1864E+01  0.1705E+02
    -13.181  0.4300E+00  0.1706E+02
    -13.166  0.1878E+01  0.1708E+02
    -13.152  0.7911E+00  0.1709E+02
    -13.138  0.3323E+00  0.1710E+02
    -13.123  0.4804E+01  0.1717E+02
    -13.109  0.5799E+01  0.1725E+02
    -13.095  0.6777E+00  0.1726E+02
    -13.080  0.3940E-02  0.1726E+02
    -13.066  0.5982E-06  0.1726E+02
    -13.052  0.2982E-11  0.1726E+02
    -13.038  0.4814E-06  0.1726E+02
    -13.023  0.3852E-02  0.1726E+02
    -13.009  0.6799E+00  0.1727E+02
    -12.995  0.3953E+01  0.1733E+02
    -12.980  0.1154E+01  0.1734E+02
    -12.966  0.1220E-01  0.1734E+02
    -12.952  0.2980E-05  0.1734E+02
    -12.937  0.1402E-10  0.1734E+02
    -12.923  0.0000E+00  0.1734E+02
    -12.909  0.0000E+00  0.1734E+02
    -12.894  0.1101E-11  0.1734E+02
    -12.880  0.3896E-06  0.1734E+02
    -12.866  0.2622E-02  0.1734E+02
    -12.851  0.3988E+00  0.1735E+02
    -12.837  0.2785E+01  0.1739E+02
    -12.823  0.4494E+01  0.1745E+02
    -12.809  0.1018E+01  0.1747E+02
    -12.794  0.6239E+00  0.1748E+02
    -12.780  0.3817E+01  0.1753E+02
    -12.766  0.1346E+01  0.1755E+02
    -12.751  0.2995E+00  0.1755E+02
    -12.737  0.3440E+01  0.1760E+02
    -12.723  0.2033E+01  0.1763E+02
    -12.708  0.4949E-01  0.1763E+02
    -12.694  0.3317E-04  0.1763E+02
    -12.680  0.1259E-01  0.1763E+02
    -12.665  0.1328E+01  0.1765E+02
    -12.651  0.5806E+01  0.1774E+02
    -12.637  0.1538E+01  0.1776E+02
    -12.622  0.1866E-01  0.1776E+02
    -12.608  0.6861E-05  0.1776E+02
    -12.594  0.2893E-02  0.1776E+02
    -12.580  0.5921E+00  0.1777E+02
    -12.565  0.3904E+01  0.1782E+02
    -12.551  0.1287E+01  0.1784E+02
    -12.537  0.7651E-01  0.1784E+02
    -12.522  0.2191E+01  0.1787E+02
    -12.508  0.3313E+01  0.1792E+02
    -12.494  0.2372E+00  0.1792E+02
    -12.479  0.4859E-03  0.1792E+02
    -12.465  0.2179E-07  0.1792E+02
    -12.451  0.6460E-04  0.1792E+02
    -12.436  0.7721E-01  0.1792E+02
    -12.422  0.2380E+01  0.1796E+02
    -12.408  0.3150E+01  0.1800E+02
    -12.393  0.1942E+00  0.1801E+02
    -12.379  0.3352E-03  0.1801E+02
    -12.365  0.1919E-07  0.1801E+02
    -12.351  0.1911E-03  0.1801E+02
    -12.336  0.1044E+00  0.1801E+02
    -12.322  0.1696E+01  0.1803E+02
    -12.308  0.2715E+01  0.1807E+02
    -12.293  0.2133E+01  0.1810E+02
    -12.279  0.4036E+01  0.1816E+02
    -12.265  0.9140E+00  0.1817E+02
    -12.250  0.2290E+00  0.1818E+02
    -12.236  0.3223E+01  0.1822E+02
    -12.222  0.2286E+01  0.1826E+02
    -12.207  0.3980E+00  0.1826E+02
    -12.193  0.5472E+01  0.1834E+02
    -12.179  0.7374E+01  0.1844E+02
    -12.164  0.2165E+01  0.1848E+02
    -12.150  0.2222E+01  0.1851E+02
    -12.136  0.3820E+01  0.1856E+02
    -12.122  0.1854E+01  0.1859E+02
    -12.107  0.1522E+01  0.1861E+02
    -12.093  0.4223E+01  0.1867E+02
    -12.079  0.6691E+01  0.1877E+02
    -12.064  0.7208E+01  0.1887E+02
    -12.050  0.6383E+00  0.1888E+02
    -12.036  0.1709E-02  0.1888E+02
    -12.021  0.1288E-06  0.1888E+02
    -12.007  0.5159E-03  0.1888E+02
    -11.993  0.1841E+00  0.1888E+02
    -11.978  0.2774E+01  0.1892E+02
    -11.964  0.5108E+01  0.1899E+02
    -11.950  0.1102E+01  0.1901E+02
    -11.935  0.2925E+00  0.1901E+02
    -11.921  0.3490E+01  0.1906E+02
    -11.907  0.3469E+01  0.1911E+02
    -11.893  0.2801E+01  0.1915E+02
    -11.878  0.8892E+01  0.1928E+02
    -11.864  0.6305E+01  0.1937E+02
    -11.850  0.1005E+01  0.1939E+02
    -11.835  0.3822E+01  0.1944E+02
    -11.821  0.7457E+01  0.1955E+02
    -11.807  0.8059E+01  0.1966E+02
    -11.792  0.3642E+01  0.1971E+02
    -11.778  0.1127E+01  0.1973E+02
    -11.764  0.4537E+01  0.1980E+02
    -11.749  0.3012E+01  0.1984E+02
    -11.735  0.7570E+00  0.1985E+02
    -11.721  0.5217E+01  0.1992E+02
    -11.706  0.3733E+01  0.1998E+02
    -11.692  0.6866E+01  0.2008E+02
    -11.678  0.4180E+01  0.2014E+02
    -11.664  0.3898E+01  0.2019E+02
    -11.649  0.2108E+01  0.2022E+02
    -11.635  0.2012E+01  0.2025E+02
    -11.621  0.5632E+00  0.2026E+02
    -11.606  0.3159E+01  0.2030E+02
    -11.592  0.2999E+01  0.2035E+02
    -11.578  0.3292E+01  0.2039E+02
    -11.563  0.6327E+01  0.2048E+02
    -11.549  0.4085E+01  0.2054E+02
    -11.535  0.1694E+01  0.2057E+02
    -11.520  0.3965E+01  0.2062E+02
    -11.506  0.2835E+01  0.2066E+02
    -11.492  0.5419E+01  0.2074E+02
    -11.477  0.4096E+01  0.2080E+02
    -11.463  0.5108E+01  0.2087E+02
    -11.449  0.3055E+01  0.2092E+02
    -11.435  0.3251E+01  0.2096E+02
    -11.420  0.4919E+01  0.2103E+02
    -11.406  0.7236E+00  0.2104E+02
    -11.392  0.1162E+00  0.2105E+02
    -11.377  0.1669E+01  0.2107E+02
    -11.363  0.2916E+01  0.2111E+02
    -11.349  0.4629E+01  0.2118E+02
    -11.334  0.4350E+01  0.2124E+02
    -11.320  0.8622E+00  0.2125E+02
    -11.306  0.1843E+01  0.2128E+02
    -11.291  0.3586E+01  0.2133E+02
    -11.277  0.3567E+00  0.2134E+02
    -11.263  0.8950E+00  0.2135E+02
    -11.248  0.3255E+01  0.2140E+02
    -11.234  0.4024E+01  0.2145E+02
    -11.220  0.5124E+00  0.2146E+02
    -11.206  0.6745E-01  0.2146E+02
    -11.191  0.2870E+01  0.2150E+02
    -11.177  0.9662E+01  0.2164E+02
    -11.163  0.7212E+01  0.2174E+02
    -11.148  0.2529E+01  0.2178E+02
    -11.134  0.4714E+01  0.2185E+02
    -11.120  0.6249E+01  0.2194E+02
    -11.105  0.3999E+01  0.2199E+02
    -11.091  0.4142E+00  0.2200E+02
    -11.077  0.1409E-02  0.2200E+02
    -11.062  0.2221E-05  0.2200E+02
    -11.048  0.1145E-01  0.2200E+02
    -11.034  0.1412E+01  0.2202E+02
    -11.019  0.7081E+01  0.2212E+02
    -11.005  0.7229E+01  0.2223E+02
    -10.991  0.4278E+01  0.2229E+02
    -10.977  0.2285E+01  0.2232E+02
    -10.962  0.8251E+01  0.2244E+02
    -10.948  0.3001E+01  0.2248E+02
    -10.934  0.4015E+01  0.2254E+02
    -10.919  0.1441E+01  0.2256E+02
    -10.905  0.1995E+01  0.2259E+02
    -10.891  0.1337E+01  0.2261E+02
    -10.876  0.1943E+01  0.2263E+02
    -10.862  0.1565E+01  0.2266E+02
    -10.848  0.6400E+01  0.2275E+02
    -10.833  0.6391E+01  0.2284E+02
    -10.819  0.2695E+01  0.2288E+02
    -10.805  0.4829E+01  0.2295E+02
    -10.790  0.3051E+01  0.2299E+02
    -10.776  0.5792E+01  0.2307E+02
    -10.762  0.5210E+01  0.2315E+02
    -10.748  0.1942E+01  0.2318E+02
    -10.733  0.4613E-01  0.2318E+02
    -10.719  0.3088E-04  0.2318E+02
    -10.705  0.2132E-08  0.2318E+02
    -10.690  0.8293E-04  0.2318E+02
    -10.676  0.8821E-01  0.2318E+02
    -10.662  0.3012E+01  0.2322E+02
    -10.647  0.7006E+01  0.2332E+02
    -10.633  0.1482E+01  0.2334E+02
    -10.619  0.9730E-01  0.2334E+02
    -10.604  0.2422E+01  0.2338E+02
    -10.590  0.3419E+01  0.2343E+02
    -10.576  0.3841E+01  0.2348E+02
    -10.561  0.5003E+01  0.2355E+02
    -10.547  0.3747E+01  0.2361E+02
    -10.533  0.5781E+01  0.2369E+02
    -10.519  0.1792E+01  0.2372E+02
    -10.504  0.5383E-01  0.2372E+02
    -10.490  0.1716E+01  0.2374E+02
    -10.476  0.5244E+01  0.2382E+02
    -10.461  0.4765E+01  0.2388E+02
    -10.447  0.5196E+01  0.2396E+02
    -10.433  0.7141E+00  0.2397E+02
    -10.418  0.3740E+01  0.2402E+02
    -10.404  0.5773E+01  0.2411E+02
    -10.390  0.1139E+02  0.2427E+02
    -10.375  0.7439E+01  0.2437E+02
    -10.361  0.4146E+00  0.2438E+02
    -10.347  0.1323E+00  0.2438E+02
    -10.332  0.3613E+01  0.2443E+02
    -10.318  0.7017E+01  0.2453E+02
    -10.304  0.3534E+01  0.2459E+02
    -10.290  0.2098E+00  0.2459E+02
    -10.275  0.4445E-01  0.2459E+02
    -10.261  0.1244E+01  0.2461E+02
    -10.247  0.1526E+01  0.2463E+02
    -10.232  0.8640E-01  0.2463E+02
    -10.218  0.1386E-03  0.2463E+02
    -10.204  0.1670E-01  0.2463E+02
    -10.189  0.2260E+01  0.2466E+02
    -10.175  0.1175E+02  0.2483E+02
    -10.161  0.3341E+01  0.2488E+02
    -10.146  0.4562E+00  0.2488E+02
    -10.132  0.4452E+01  0.2495E+02
    -10.118  0.5612E+01  0.2503E+02
    -10.104  0.1110E+01  0.2504E+02
    -10.089  0.8933E-01  0.2505E+02
    -10.075  0.2458E+01  0.2508E+02
    -10.061  0.4522E+01  0.2515E+02
    -10.046  0.1948E+01  0.2517E+02
    -10.032  0.4551E+01  0.2524E+02
    -10.018  0.7015E+01  0.2534E+02
    -10.003  0.1238E+02  0.2552E+02
     -9.989  0.6259E+01  0.2561E+02
     -9.975  0.5523E+01  0.2569E+02
     -9.960  0.1662E+01  0.2571E+02
     -9.946  0.7658E+00  0.2572E+02
     -9.932  0.1907E+01  0.2575E+02
     -9.917  0.2442E+00  0.2575E+02
     -9.903  0.9802E-03  0.2575E+02
     -9.889  0.2441E-02  0.2575E+02
     -9.875  0.3805E+00  0.2576E+02
     -9.860  0.1990E+01  0.2578E+02
     -9.846  0.6142E+00  0.2579E+02
     -9.832  0.2515E+01  0.2583E+02
     -9.817  0.3033E+01  0.2587E+02
     -9.803  0.1740E+00  0.2588E+02
     -9.789  0.7935E+00  0.2589E+02
     -9.774  0.3986E+01  0.2594E+02
     -9.760  0.1016E+01  0.2596E+02
     -9.746  0.1062E+01  0.2597E+02
     -9.731  0.7017E+01  0.2607E+02
     -9.717  0.4458E+01  0.2614E+02
     -9.703  0.6529E+01  0.2623E+02
     -9.688  0.1177E+02  0.2640E+02
     -9.674  0.1527E+02  0.2662E+02
     -9.660  0.6302E+01  0.2671E+02
     -9.646  0.2821E+01  0.2675E+02
     -9.631  0.5495E+01  0.2683E+02
     -9.617  0.2422E+01  0.2686E+02
     -9.603  0.3493E+01  0.2691E+02
     -9.588  0.5900E+00  0.2692E+02
     -9.574  0.8213E+00  0.2693E+02
     -9.560  0.1864E+01  0.2696E+02
     -9.545  0.8852E+00  0.2697E+02
     -9.531  0.7538E+01  0.2708E+02
     -9.517  0.6060E+01  0.2717E+02
     -9.502  0.1335E+01  0.2719E+02
     -9.488  0.1817E+01  0.2721E+02
     -9.474  0.4537E+01  0.2728E+02
     -9.459  0.6521E+01  0.2737E+02
     -9.445  0.5233E+00  0.2738E+02
     -9.431  0.8197E-01  0.2738E+02
     -9.417  0.2415E+01  0.2741E+02
     -9.402  0.3248E+01  0.2746E+02
     -9.388  0.3066E+01  0.2750E+02
     -9.374  0.6841E+01  0.2760E+02
     -9.359  0.1538E+02  0.2782E+02
     -9.345  0.8897E+01  0.2795E+02
     -9.331  0.3552E+01  0.2800E+02
     -9.316  0.2900E+01  0.2804E+02
     -9.302  0.1834E+01  0.2807E+02
     -9.288  0.5404E+01  0.2814E+02
     -9.273  0.1046E+02  0.2829E+02
     -9.259  0.6407E+01  0.2839E+02
     -9.245  0.2366E+01  0.2842E+02
     -9.230  0.2035E+01  0.2845E+02
     -9.216  0.1129E+01  0.2847E+02
     -9.202  0.4122E+01  0.2852E+02
     -9.188  0.6364E+01  0.2862E+02
     -9.173  0.9872E+01  0.2876E+02
     -9.159  0.1135E+02  0.2892E+02
     -9.145  0.5478E+01  0.2900E+02
     -9.130  0.3550E+01  0.2905E+02
     -9.116  0.4603E+01  0.2911E+02
     -9.102  0.4784E+01  0.2918E+02
     -9.087  0.7286E+01  0.2929E+02
     -9.073  0.7067E+01  0.2939E+02
     -9.059  0.1636E+01  0.2941E+02
     -9.044  0.2384E-01  0.2941E+02
     -9.030  0.2788E+00  0.2942E+02
     -9.016  0.5029E+01  0.2949E+02
     -9.001  0.7757E+01  0.2960E+02
     -8.987  0.1422E+01  0.2962E+02
     -8.973  0.4924E+00  0.2963E+02
     -8.959  0.5284E+01  0.2970E+02
     -8.944  0.3328E+01  0.2975E+02
     -8.930  0.4316E+01  0.2981E+02
     -8.916  0.5389E+01  0.2989E+02
     -8.901  0.1496E+01  0.2991E+02
     -8.887  0.2409E-01  0.2991E+02
     -8.873  0.1428E+00  0.2991E+02
     -8.858  0.1122E+01  0.2993E+02
     -8.844  0.9083E+01  0.3006E+02
     -8.830  0.8722E+01  0.3018E+02
     -8.815  0.4133E+01  0.3024E+02
     -8.801  0.1575E+01  0.3026E+02
     -8.787  0.4002E+01  0.3032E+02
     -8.772  0.2539E+01  0.3036E+02
     -8.758  0.3628E+01  0.3041E+02
     -8.744  0.9610E+00  0.3042E+02
     -8.730  0.1976E+01  0.3045E+02
     -8.715  0.1621E+01  0.3048E+02
     -8.701  0.8714E+01  0.3060E+02
     -8.687  0.5420E+01  0.3068E+02
     -8.672  0.4116E+01  0.3074E+02
     -8.658  0.7456E+00  0.3075E+02
     -8.644  0.2333E-01  0.3075E+02
     -8.629  0.1384E+01  0.3077E+02
     -8.615  0.3861E+01  0.3082E+02
     -8.601  0.5366E+00  0.3083E+02
     -8.586  0.3256E-02  0.3083E+02
     -8.572  0.3262E+00  0.3084E+02
     -8.558  0.3557E+01  0.3089E+02
     -8.543  0.1886E+01  0.3091E+02
     -8.529  0.7274E+00  0.3092E+02
     -8.515  0.4379E+01  0.3099E+02
     -8.501  0.6456E+01  0.3108E+02
     -8.486  0.4376E+01  0.3114E+02
     -8.472  0.7328E+01  0.3125E+02
     -8.458  0.3152E+01  0.3129E+02
     -8.443  0.3661E+01  0.3134E+02
     -8.429  0.1830E+01  0.3137E+02
     -8.415  0.1018E+01  0.3138E+02
     -8.400  0.1163E+02  0.3155E+02
     -8.386  0.7964E+01  0.3166E+02
     -8.372  0.5453E+01  0.3174E+02
     -8.357  0.3272E+01  0.3179E+02
     -8.343  0.5054E+01  0.3186E+02
     -8.329  0.3272E+01  0.3191E+02
     -8.314  0.9192E-01  0.3191E+02
     -8.300  0.2669E+00  0.3191E+02
     -8.286  0.3458E+01  0.3196E+02
     -8.272  0.4656E+01  0.3203E+02
     -8.257  0.7536E+01  0.3214E+02
     -8.243  0.4969E+01  0.3221E+02
     -8.229  0.3429E+01  0.3226E+02
     -8.214  0.4037E+01  0.3232E+02
     -8.200  0.1283E+01  0.3233E+02
     -8.186  0.1003E+01  0.3235E+02
     -8.171  0.1926E+01  0.3238E+02
     -8.157  0.1318E+01  0.3239E+02
     -8.143  0.6428E+01  0.3249E+02
     -8.128  0.1259E+02  0.3267E+02
     -8.114  0.1196E+02  0.3284E+02
     -8.100  0.5537E+01  0.3292E+02
     -8.085  0.6763E+00  0.3293E+02
     -8.071  0.5007E-02  0.3293E+02
     -8.057  0.1372E-05  0.3293E+02
     -8.043  0.3219E-02  0.3293E+02
     -8.028  0.6809E+00  0.3294E+02
     -8.014  0.6132E+01  0.3302E+02
     -8.000  0.5953E+01  0.3311E+02
     -7.985  0.6568E+01  0.3320E+02
     -7.971  0.6120E+01  0.3329E+02
     -7.957  0.6912E+01  0.3339E+02
     -7.942  0.4646E+01  0.3346E+02
     -7.928  0.4922E+01  0.3353E+02
     -7.914  0.4089E+01  0.3359E+02
     -7.899  0.3950E+00  0.3359E+02
     -7.885  0.6927E+00  0.3360E+02
     -7.871  0.3989E+01  0.3366E+02
     -7.856  0.2945E+01  0.3370E+02
     -7.842  0.4302E+01  0.3376E+02
     -7.828  0.3476E+01  0.3381E+02
     -7.814  0.4839E+01  0.3388E+02
     -7.799  0.3847E+01  0.3394E+02
     -7.785  0.4209E+01  0.3400E+02
     -7.771  0.2969E+01  0.3404E+02
     -7.756  0.1351E+01  0.3406E+02
     -7.742  0.2783E+01  0.3410E+02
     -7.728  0.3506E+01  0.3415E+02
     -7.713  0.5369E+01  0.3423E+02
     -7.699  0.2533E+01  0.3426E+02
     -7.685  0.1572E+01  0.3428E+02
     -7.670  0.6016E+01  0.3437E+02
     -7.656  0.3985E+01  0.3443E+02
     -7.642  0.3764E+01  0.3448E+02
     -7.627  0.8486E+01  0.3460E+02
     -7.613  0.5139E+01  0.3468E+02
     -7.599  0.6749E+01  0.3477E+02
     -7.585  0.7490E+01  0.3488E+02
     -7.570  0.9197E+01  0.3501E+02
     -7.556  0.5442E+01  0.3509E+02
     -7.542  0.1467E+01  0.3511E+02
     -7.527  0.1832E+01  0.3514E+02
     -7.513  0.3391E+01  0.3519E+02
     -7.499  0.2252E+01  0.3522E+02
     -7.484  0.1292E+01  0.3524E+02
     -7.470  0.4137E+01  0.3530E+02
     -7.456  0.3266E+01  0.3534E+02
     -7.441  0.3233E+01  0.3539E+02
     -7.427  0.2493E+01  0.3542E+02
     -7.413  0.2550E+00  0.3543E+02
     -7.398  0.5464E+01  0.3551E+02
     -7.384  0.1252E+02  0.3569E+02
     -7.370  0.4150E+01  0.3574E+02
     -7.356  0.5769E+01  0.3583E+02
     -7.341  0.1242E+01  0.3584E+02
     -7.327  0.4788E+01  0.3591E+02
     -7.313  0.7889E+01  0.3603E+02
     -7.298  0.1539E+01  0.3605E+02
     -7.284  0.2103E-01  0.3605E+02
     -7.270  0.1065E+01  0.3606E+02
     -7.255  0.8635E+01  0.3619E+02
     -7.241  0.7046E+01  0.3629E+02
     -7.227  0.9697E+01  0.3643E+02
     -7.212  0.7802E+01  0.3654E+02
     -7.198  0.1002E+01  0.3655E+02
     -7.184  0.2340E+01  0.3659E+02
     -7.169  0.3104E+01  0.3663E+02
     -7.155  0.1145E+02  0.3679E+02
     -7.141  0.1818E+02  0.3705E+02
     -7.127  0.4630E+01  0.3712E+02
     -7.112  0.1979E+01  0.3715E+02
     -7.098  0.2584E+01  0.3719E+02
     -7.084  0.6126E+01  0.3727E+02
     -7.069  0.4346E+01  0.3734E+02
     -7.055  0.6006E+01  0.3742E+02
     -7.041  0.6924E+01  0.3752E+02
     -7.026  0.1164E+02  0.3769E+02
     -7.012  0.1233E+02  0.3786E+02
     -6.998  0.5077E+01  0.3794E+02
     -6.983  0.1460E+01  0.3796E+02
     -6.969  0.2074E+01  0.3799E+02
     -6.955  0.9454E+01  0.3812E+02
     -6.940  0.4178E+01  0.3818E+02
     -6.926  0.6875E+01  0.3828E+02
     -6.912  0.7777E+01  0.3839E+02
     -6.898  0.9408E+01  0.3853E+02
     -6.883  0.3683E+01  0.3858E+02
     -6.869  0.1152E+01  0.3860E+02
     -6.855  0.4809E+01  0.3867E+02
     -6.840  0.5124E+01  0.3874E+02
     -6.826  0.4313E+01  0.3880E+02
     -6.812  0.2499E+01  0.3884E+02
     -6.797  0.5502E+01  0.3891E+02
     -6.783  0.6349E+01  0.3901E+02
     -6.769  0.4574E+01  0.3907E+02
     -6.754  0.3129E+01  0.3912E+02
     -6.740  0.4960E+01  0.3919E+02
     -6.726  0.1052E+02  0.3934E+02
     -6.711  0.1171E+02  0.3951E+02
     -6.697  0.4798E+01  0.3957E+02
     -6.683  0.2824E+00  0.3958E+02
     -6.669  0.2284E+00  0.3958E+02
     -6.654  0.2649E+01  0.3962E+02
     -6.640  0.2689E+01  0.3966E+02
     -6.626  0.7288E+00  0.3967E+02
     -6.611  0.2089E+01  0.3970E+02
     -6.597  0.1968E+01  0.3973E+02
     -6.583  0.1367E+01  0.3975E+02
     -6.568  0.3108E+01  0.3979E+02
     -6.554  0.6475E+01  0.3988E+02
     -6.540  0.1253E+02  0.4006E+02
     -6.525  0.1216E+02  0.4024E+02
     -6.511  0.9105E+01  0.4037E+02
     -6.497  0.4063E+01  0.4042E+02
     -6.482  0.3941E+01  0.4048E+02
     -6.468  0.8416E+01  0.4060E+02
     -6.454  0.1081E+02  0.4076E+02
     -6.440  0.1525E+02  0.4097E+02
     -6.425  0.9348E+01  0.4111E+02
     -6.411  0.5613E+01  0.4119E+02
     -6.397  0.1001E+02  0.4133E+02
     -6.382  0.1653E+02  0.4157E+02
     -6.368  0.2265E+02  0.4189E+02
     -6.354  0.1930E+02  0.4217E+02
     -6.339  0.9813E+01  0.4231E+02
     -6.325  0.6364E+00  0.4232E+02
     -6.311  0.1453E+00  0.4232E+02
     -6.296  0.1731E+01  0.4235E+02
     -6.282  0.1003E+01  0.4236E+02
     -6.268  0.2386E-01  0.4236E+02
     -6.253  0.6441E-03  0.4236E+02
     -6.239  0.2635E+00  0.4236E+02
     -6.225  0.3360E+01  0.4241E+02
     -6.211  0.2120E+01  0.4244E+02
     -6.196  0.1559E+00  0.4244E+02
     -6.182  0.1578E+01  0.4247E+02
     -6.168  0.1189E+01  0.4248E+02
     -6.153  0.3429E+00  0.4249E+02
     -6.139  0.2870E+01  0.4253E+02
     -6.125  0.4903E+01  0.4260E+02
     -6.110  0.2841E+01  0.4264E+02
     -6.096  0.1180E+01  0.4266E+02
     -6.082  0.3837E+01  0.4271E+02
     -6.067  0.1540E+01  0.4273E+02
     -6.053  0.3903E+01  0.4279E+02
     -6.039  0.8965E+01  0.4292E+02
     -6.024  0.4222E+01  0.4298E+02
     -6.010  0.3043E+01  0.4302E+02
     -5.996  0.1161E+02  0.4319E+02
     -5.982  0.1102E+02  0.4335E+02
     -5.967  0.3021E+01  0.4339E+02
     -5.953  0.1133E+01  0.4341E+02
     -5.939  0.1983E+01  0.4343E+02
     -5.924  0.3425E+00  0.4344E+02
     -5.910  0.4660E-01  0.4344E+02
     -5.896  0.1957E+01  0.4347E+02
     -5.881  0.3498E+01  0.4352E+02
     -5.867  0.3150E+00  0.4352E+02
     -5.853  0.1196E+01  0.4354E+02
     -5.838  0.3926E+01  0.4360E+02
     -5.824  0.6633E+00  0.4361E+02
     -5.810  0.3820E-02  0.4361E+02
     -5.795  0.2753E-01  0.4361E+02
     -5.781  0.1057E+01  0.4362E+02
     -5.767  0.1850E+01  0.4365E+02
     -5.753  0.1906E+01  0.4367E+02
     -5.738  0.1189E+01  0.4369E+02
     -5.724  0.3302E+01  0.4374E+02
     -5.710  0.2205E+01  0.4377E+02
     -5.695  0.6732E-01  0.4377E+02
     -5.681  0.1048E-02  0.4377E+02
     -5.667  0.3367E+00  0.4378E+02
     -5.652  0.3657E+01  0.4383E+02
     -5.638  0.4878E+01  0.4390E+02
     -5.624  0.6273E+01  0.4399E+02
     -5.609  0.4690E+01  0.4406E+02
     -5.595  0.2298E+01  0.4409E+02
     -5.581  0.3695E+01  0.4414E+02
     -5.566  0.3021E+01  0.4418E+02
     -5.552  0.1622E+00  0.4419E+02
     -5.538  0.2799E+00  0.4419E+02
     -5.524  0.4976E+01  0.4426E+02
     -5.509  0.5862E+01  0.4435E+02
     -5.495  0.4873E+00  0.4435E+02
     -5.481  0.5216E+00  0.4436E+02
     -5.466  0.3846E+01  0.4442E+02
     -5.452  0.1415E+01  0.4444E+02
     -5.438  0.2139E-01  0.4444E+02
     -5.423  0.7054E+00  0.4445E+02
     -5.409  0.9974E+01  0.4459E+02
     -5.395  0.8896E+01  0.4472E+02
     -5.380  0.1050E+01  0.4473E+02
     -5.366  0.1972E+01  0.4476E+02
     -5.352  0.6034E+00  0.4477E+02
     -5.337  0.6765E-02  0.4477E+02
     -5.323  0.3617E-02  0.4477E+02
     -5.309  0.5062E+00  0.4478E+02
     -5.295  0.4152E+01  0.4483E+02
     -5.280  0.6397E+01  0.4493E+02
     -5.266  0.7216E+01  0.4503E+02
     -5.252  0.9545E+01  0.4517E+02
     -5.237  0.3048E+01  0.4521E+02
     -5.223  0.3422E+01  0.4526E+02
     -5.209  0.3220E+01  0.4531E+02
     -5.194  0.4093E+00  0.4531E+02
     -5.180  0.3129E+01  0.4536E+02
     -5.166  0.4824E+01  0.4542E+02
     -5.151  0.9549E+01  0.4556E+02
     -5.137  0.2575E+01  0.4560E+02
     -5.123  0.7004E+00  0.4561E+02
     -5.108  0.3245E+01  0.4565E+02
     -5.094  0.4592E+01  0.4572E+02
     -5.080  0.4667E+01  0.4579E+02
     -5.066  0.3460E+01  0.4584E+02
     -5.051  0.3807E+01  0.4589E+02
     -5.037  0.1307E+02  0.4608E+02
     -5.023  0.5400E+01  0.4616E+02
     -5.008  0.9630E+01  0.4629E+02
     -4.994  0.8356E+01  0.4641E+02
     -4.980  0.3799E+01  0.4647E+02
     -4.965  0.1064E+02  0.4662E+02
     -4.951  0.4721E+01  0.4669E+02
     -4.937  0.3480E+01  0.4674E+02
     -4.922  0.5574E+01  0.4682E+02
     -4.908  0.4307E+01  0.4688E+02
     -4.894  0.1781E+01  0.4690E+02
     -4.879  0.7586E+01  0.4701E+02
     -4.865  0.5779E+01  0.4710E+02
     -4.851  0.2730E+01  0.4713E+02
     -4.837  0.1885E+01  0.4716E+02
     -4.822  0.1861E+01  0.4719E+02
     -4.808  0.3001E+01  0.4723E+02
     -4.794  0.6555E+01  0.4732E+02
     -4.779  0.7532E+01  0.4743E+02
     -4.765  0.2360E+01  0.4747E+02
     -4.751  0.6490E-01  0.4747E+02
     -4.736  0.6018E-01  0.4747E+02
     -4.722  0.1475E+01  0.4749E+02
     -4.708  0.5503E+01  0.4757E+02
     -4.693  0.9719E+01  0.4771E+02
     -4.679  0.3255E+01  0.4775E+02
     -4.665  0.3010E+00  0.4776E+02
     -4.651  0.6604E+00  0.4777E+02
     -4.636  0.3921E+01  0.4782E+02
     -4.622  0.4289E+01  0.4788E+02
     -4.608  0.4421E+01  0.4795E+02
     -4.593  0.1665E+01  0.4797E+02
     -4.579  0.5245E+01  0.4805E+02
     -4.565  0.7350E+01  0.4815E+02
     -4.550  0.5488E+01  0.4823E+02
     -4.536  0.1919E+01  0.4826E+02
     -4.522  0.3000E+01  0.4830E+02
     -4.507  0.3820E+01  0.4836E+02
     -4.493  0.1649E+01  0.4838E+02
     -4.479  0.8679E-01  0.4838E+02
     -4.464  0.3490E+00  0.4839E+02
     -4.450  0.4377E+01  0.4845E+02
     -4.436  0.6495E+01  0.4854E+02
     -4.422  0.1057E+02  0.4869E+02
     -4.407  0.7806E+01  0.4880E+02
     -4.393  0.1308E+02  0.4899E+02
     -4.379  0.4338E+01  0.4905E+02
     -4.364  0.4159E+01  0.4911E+02
     -4.350  0.4247E+01  0.4917E+02
     -4.336  0.3382E+01  0.4922E+02
     -4.321  0.2216E+00  0.4923E+02
     -4.307  0.2081E+01  0.4926E+02
     -4.293  0.5769E+01  0.4934E+02
     -4.278  0.8921E+00  0.4935E+02
     -4.264  0.2314E+01  0.4938E+02
     -4.250  0.3209E+01  0.4943E+02
     -4.235  0.2392E+00  0.4943E+02
     -4.221  0.2405E+01  0.4947E+02
     -4.207  0.7850E+01  0.4958E+02
     -4.193  0.3240E+01  0.4963E+02
     -4.178  0.9757E+01  0.4977E+02
     -4.164  0.2797E+01  0.4981E+02
     -4.150  0.3318E-01  0.4981E+02
     -4.135  0.1223E-04  0.4981E+02
     -4.121  0.9579E-02  0.4981E+02
     -4.107  0.1236E+01  0.4982E+02
     -4.092  0.5909E+01  0.4991E+02
     -4.078  0.2044E+01  0.4994E+02
     -4.064  0.3789E+01  0.4999E+02
     -4.049  0.2211E+01  0.5002E+02
     -4.035  0.3990E+01  0.5008E+02
     -4.021  0.1109E+01  0.5010E+02
     -4.006  0.1286E+00  0.5010E+02
     -3.992  0.2013E+01  0.5013E+02
     -3.978  0.3901E+01  0.5018E+02
     -3.964  0.4391E+01  0.5025E+02
     -3.949  0.2694E+01  0.5028E+02
     -3.935  0.1822E+01  0.5031E+02
     -3.921  0.3863E+01  0.5037E+02
     -3.906  0.2551E+01  0.5040E+02
     -3.892  0.2226E+01  0.5043E+02
     -3.878  0.4624E+01  0.5050E+02
     -3.863  0.3428E+01  0.5055E+02
     -3.849  0.1614E+01  0.5057E+02
     -3.835  0.4932E+01  0.5064E+02
     -3.820  0.2489E+01  0.5068E+02
     -3.806  0.1984E+01  0.5071E+02
     -3.792  0.2350E+01  0.5074E+02
     -3.777  0.4055E+01  0.5080E+02
     -3.763  0.2620E+01  0.5084E+02
     -3.749  0.5569E+00  0.5084E+02
     -3.735  0.1273E+01  0.5086E+02
     -3.720  0.6988E+01  0.5096E+02
     -3.706  0.6723E+01  0.5106E+02
     -3.692  0.6188E+01  0.5115E+02
     -3.677  0.6673E+01  0.5124E+02
     -3.663  0.1214E+01  0.5126E+02
     -3.649  0.7703E+00  0.5127E+02
     -3.634  0.2200E+01  0.5130E+02
     -3.620  0.4021E+01  0.5136E+02
     -3.606  0.3730E+01  0.5141E+02
     -3.591  0.1690E+01  0.5144E+02
     -3.577  0.1151E+00  0.5144E+02
     -3.563  0.8956E+00  0.5145E+02
     -3.548  0.3520E+01  0.5150E+02
     -3.534  0.1756E+01  0.5153E+02
     -3.520  0.4034E+01  0.5159E+02
     -3.506  0.3998E+01  0.5164E+02
     -3.491  0.3160E+00  0.5165E+02
     -3.477  0.1055E+01  0.5166E+02
     -3.463  0.2498E+01  0.5170E+02
     -3.448  0.2011E+01  0.5173E+02
     -3.434  0.1191E+01  0.5174E+02
     -3.420  0.7857E+01  0.5186E+02
     -3.405  0.5529E+01  0.5194E+02
     -3.391  0.1348E+01  0.5195E+02
     -3.377  0.2384E+00  0.5196E+02
     -3.362  0.6372E-02  0.5196E+02
     -3.348  0.5193E-05  0.5196E+02
     -3.334  0.1143E-03  0.5196E+02
     -3.319  0.7878E-01  0.5196E+02
     -3.305  0.1527E+01  0.5198E+02
     -3.291  0.2490E+01  0.5202E+02
     -3.277  0.2120E+01  0.5205E+02
     -3.262  0.2239E+01  0.5208E+02
     -3.248  0.2239E+01  0.5211E+02
     -3.234  0.5116E+01  0.5218E+02
     -3.219  0.1325E+02  0.5237E+02
     -3.205  0.1041E+02  0.5252E+02
     -3.191  0.8447E+01  0.5264E+02
     -3.176  0.6592E+01  0.5274E+02
     -3.162  0.6463E+00  0.5275E+02
     -3.148  0.1174E+01  0.5276E+02
     -3.133  0.1699E+01  0.5279E+02
     -3.119  0.3060E+01  0.5283E+02
     -3.105  0.4909E+01  0.5290E+02
     -3.090  0.7229E+00  0.5291E+02
     -3.076  0.6193E-02  0.5291E+02
     -3.062  0.4096E-05  0.5291E+02
     -3.048  0.8666E-02  0.5291E+02
     -3.033  0.6708E+00  0.5292E+02
     -3.019  0.1940E+01  0.5295E+02
     -3.005  0.2800E+00  0.5295E+02
     -2.990  0.1291E-02  0.5296E+02
     -2.976  0.7610E-04  0.5296E+02
     -2.962  0.8147E-01  0.5296E+02
     -2.947  0.2853E+01  0.5300E+02
     -2.933  0.6253E+01  0.5309E+02
     -2.919  0.2708E+01  0.5313E+02
     -2.904  0.3858E+01  0.5318E+02
     -2.890  0.1625E+01  0.5320E+02
     -2.876  0.2176E+00  0.5321E+02
     -2.861  0.3433E+01  0.5326E+02
     -2.847  0.4589E+01  0.5332E+02
     -2.833  0.1372E+01  0.5334E+02
     -2.819  0.2046E+01  0.5337E+02
     -2.804  0.2178E+01  0.5340E+02
     -2.790  0.2746E+01  0.5344E+02
     -2.776  0.3772E+01  0.5350E+02
     -2.761  0.3322E+01  0.5354E+02
     -2.747  0.2226E+01  0.5357E+02
     -2.733  0.2356E+00  0.5358E+02
     -2.718  0.1006E-02  0.5358E+02
     -2.704  0.6839E-01  0.5358E+02
     -2.690  0.1391E+01  0.5360E+02
     -2.675  0.1375E+01  0.5362E+02
     -2.661  0.6682E-01  0.5362E+02
     -2.647  0.9983E-04  0.5362E+02
     -2.632  0.3425E-08  0.5362E+02
     -2.618  0.1860E-08  0.5362E+02
     -2.604  0.7902E-04  0.5362E+02
     -2.590  0.7390E-01  0.5362E+02
     -2.575  0.2151E+01  0.5365E+02
     -2.561  0.3283E+01  0.5370E+02
     -2.547  0.5171E+00  0.5371E+02
     -2.532  0.2623E+01  0.5374E+02
     -2.518  0.5424E+01  0.5382E+02
     -2.504  0.9309E+01  0.5395E+02
     -2.489  0.8160E+01  0.5407E+02
     -2.475  0.6076E+01  0.5416E+02
     -2.461  0.2722E+01  0.5420E+02
     -2.446  0.2773E+00  0.5420E+02
     -2.432  0.1441E+00  0.5420E+02
     -2.418  0.3361E+01  0.5425E+02
     -2.403  0.5745E+01  0.5433E+02
     -2.389  0.2218E+01  0.5436E+02
     -2.375  0.1395E+00  0.5437E+02
     -2.361  0.3284E+00  0.5437E+02
     -2.346  0.1971E+01  0.5440E+02
     -2.332  0.5939E+00  0.5441E+02
     -2.318  0.5150E-01  0.5441E+02
     -2.303  0.2004E+01  0.5444E+02
     -2.289  0.6213E+01  0.5453E+02
     -2.275  0.7206E+01  0.5463E+02
     -2.260  0.5228E+01  0.5470E+02
     -2.246  0.2222E+01  0.5474E+02
     -2.232  0.2907E+00  0.5474E+02
     -2.217  0.1389E-02  0.5474E+02
     -2.203  0.1451E-06  0.5474E+02
     -2.189  0.2661E-11  0.5474E+02
     -2.174  0.7243E-06  0.5474E+02
     -2.160  0.4472E-02  0.5474E+02
     -2.146  0.6809E+00  0.5475E+02
     -2.132  0.3889E+01  0.5481E+02
     -2.117  0.2025E+01  0.5483E+02
     -2.103  0.1889E+01  0.5486E+02
     -2.089  0.6573E+00  0.5487E+02
     -2.074  0.3739E+01  0.5492E+02
     -2.060  0.1597E+01  0.5495E+02
     -2.046  0.6020E+00  0.5496E+02
     -2.031  0.3877E+01  0.5501E+02
     -2.017  0.2226E+01  0.5504E+02
     -2.003  0.1835E+01  0.5507E+02
     -1.988  0.1863E+00  0.5507E+02
     -1.974  0.4592E-01  0.5507E+02
     -1.960  0.1964E+01  0.5510E+02
     -1.945  0.3971E+01  0.5516E+02
     -1.931  0.5423E+01  0.5524E+02
     -1.917  0.4302E+01  0.5530E+02
     -1.903  0.1615E+01  0.5532E+02
     -1.888  0.1934E+00  0.5532E+02
     -1.874  0.1614E+01  0.5535E+02
     -1.860  0.1146E+01  0.5536E+02
     -1.845  0.3470E-01  0.5536E+02
     -1.831  0.2702E-04  0.5536E+02
     -1.817  0.4222E-09  0.5536E+02
     -1.802  0.3587E-10  0.5536E+02
     -1.788  0.4767E-05  0.5536E+02
     -1.774  0.1241E-01  0.5536E+02
     -1.759  0.7770E+00  0.5537E+02
     -1.745  0.1886E+01  0.5540E+02
     -1.731  0.5069E+00  0.5541E+02
     -1.716  0.2254E+01  0.5544E+02
     -1.702  0.4160E+01  0.5550E+02
     -1.688  0.1961E+01  0.5553E+02
     -1.674  0.4700E-01  0.5553E+02
     -1.659  0.3013E-04  0.5553E+02
     -1.645  0.3413E-04  0.5553E+02
     -1.631  0.3920E-01  0.5553E+02
     -1.616  0.1189E+01  0.5555E+02
     -1.602  0.1574E+01  0.5557E+02
     -1.588  0.9855E-01  0.5557E+02
     -1.573  0.2048E-03  0.5557E+02
     -1.559  0.4748E-01  0.5557E+02
     -1.545  0.2000E+01  0.5560E+02
     -1.530  0.3465E+01  0.5565E+02
     -1.516  0.4394E+00  0.5566E+02
     -1.502  0.1746E+01  0.5568E+02
     -1.487  0.1087E+01  0.5570E+02
     -1.473  0.1615E+01  0.5572E+02
     -1.459  0.1167E+01  0.5574E+02
     -1.445  0.3748E-01  0.5574E+02
     -1.430  0.3209E-04  0.5574E+02
     -1.416  0.1993E-05  0.5574E+02
     -1.402  0.7165E-02  0.5574E+02
     -1.387  0.6129E+00  0.5575E+02
     -1.373  0.1960E+01  0.5577E+02
     -1.359  0.3395E+00  0.5578E+02
     -1.344  0.1443E+01  0.5580E+02
     -1.330  0.4321E+01  0.5586E+02
     -1.316  0.2498E+01  0.5590E+02
     -1.301  0.4192E+00  0.5590E+02
     -1.287  0.3055E-02  0.5590E+02
     -1.273  0.2015E-03  0.5590E+02
     -1.258  0.6036E-01  0.5590E+02
     -1.244  0.5948E+00  0.5591E+02
     -1.230  0.3049E+00  0.5592E+02
     -1.216  0.6785E-02  0.5592E+02
     -1.201  0.4058E-05  0.5592E+02
     -1.187  0.5112E-10  0.5592E+02
     -1.173  0.0000E+00  0.5592E+02
     -1.158  0.0000E+00  0.5592E+02
     -1.144  0.0000E+00  0.5592E+02
     -1.130  0.0000E+00  0.5592E+02
     -1.115  0.0000E+00  0.5592E+02
     -1.101  0.0000E+00  0.5592E+02
     -1.087  0.1824E-12  0.5592E+02
     -1.072  0.1037E-06  0.5592E+02
     -1.058  0.1113E-02  0.5592E+02
     -1.044  0.2599E+00  0.5592E+02
     -1.029  0.1922E+01  0.5595E+02
     -1.015  0.7083E+00  0.5596E+02
     -1.001  0.9893E-02  0.5596E+02
     -0.987  0.3278E-05  0.5596E+02
     -0.972  0.2116E-10  0.5596E+02
     -0.958  0.0000E+00  0.5596E+02
     -0.944  0.0000E+00  0.5596E+02
     -0.929  0.0000E+00  0.5596E+02
     -0.915  0.0000E+00  0.5596E+02
     -0.901  0.0000E+00  0.5596E+02
     -0.886  0.0000E+00  0.5596E+02
     -0.872  0.0000E+00  0.5596E+02
     -0.858  0.0000E+00  0.5596E+02
     -0.843  0.0000E+00  0.5596E+02
     -0.829  0.0000E+00  0.5596E+02
     -0.815  0.0000E+00  0.5596E+02
     -0.800  0.0000E+00  0.5596E+02
     -0.786  0.2226E-11  0.5596E+02
     -0.772  0.6483E-06  0.5596E+02
     -0.758  0.3615E-02  0.5596E+02
     -0.743  0.4562E+00  0.5597E+02
     -0.729  0.1997E+01  0.5599E+02
     -0.715  0.4411E+00  0.5600E+02
     -0.700  0.3360E-02  0.5600E+02
     -0.686  0.5775E-06  0.5600E+02
     -0.672  0.1899E-11  0.5600E+02
     -0.657  0.0000E+00  0.5600E+02
     -0.643  0.0000E+00  0.5600E+02
     -0.629  0.0000E+00  0.5600E+02
     -0.614  0.0000E+00  0.5600E+02
     -0.600  0.0000E+00  0.5600E+02
     -0.586  0.0000E+00  0.5600E+02
     -0.571  0.0000E+00  0.5600E+02
     -0.557  0.0000E+00  0.5600E+02
     -0.543  0.0000E+00  0.5600E+02
     -0.529  0.0000E+00  0.5600E+02
     -0.514  0.0000E+00  0.5600E+02
     -0.500  0.0000E+00  0.5600E+02
     -0.486  0.0000E+00  0.5600E+02
     -0.471  0.0000E+00  0.5600E+02
     -0.457  0.0000E+00  0.5600E+02
     -0.443  0.0000E+00  0.5600E+02
     -0.428  0.0000E+00  0.5600E+02
     -0.414  0.0000E+00  0.5600E+02
     -0.400  0.0000E+00  0.5600E+02
     -0.385  0.0000E+00  0.5600E+02
     -0.371  0.0000E+00  0.5600E+02
     -0.357  0.0000E+00  0.5600E+02
     -0.342  0.0000E+00  0.5600E+02
     -0.328  0.0000E+00  0.5600E+02
     -0.314  0.0000E+00  0.5600E+02
     -0.300  0.0000E+00  0.5600E+02
     -0.285  0.0000E+00  0.5600E+02
     -0.271  0.0000E+00  0.5600E+02
     -0.257  0.0000E+00  0.5600E+02
     -0.242  0.0000E+00  0.5600E+02
     -0.228  0.0000E+00  0.5600E+02
     -0.214  0.0000E+00  0.5600E+02
     -0.199  0.0000E+00  0.5600E+02
     -0.185  0.0000E+00  0.5600E+02
     -0.171  0.0000E+00  0.5600E+02
     -0.156  0.0000E+00  0.5600E+02
     -0.142  0.0000E+00  0.5600E+02
     -0.128  0.0000E+00  0.5600E+02
     -0.113  0.0000E+00  0.5600E+02
     -0.099  0.0000E+00  0.5600E+02
     -0.085  0.0000E+00  0.5600E+02
     -0.071  0.1507E-10  0.5600E+02
     -0.056  0.2572E-05  0.5600E+02
     -0.042  0.8526E-02  0.5600E+02
     -0.028  0.6656E+00  0.5601E+02
     -0.013  0.1942E+01  0.5604E+02
      0.001  0.2834E+00  0.5604E+02
      0.015  0.1327E-02  0.5604E+02
      0.030  0.1357E-06  0.5604E+02
      0.044  0.2624E-12  0.5604E+02
      0.058  0.0000E+00  0.5604E+02
      0.073  0.0000E+00  0.5604E+02
      0.087  0.0000E+00  0.5604E+02
      0.101  0.0000E+00  0.5604E+02
      0.116  0.0000E+00  0.5604E+02
      0.130  0.0000E+00  0.5604E+02
      0.144  0.0000E+00  0.5604E+02
      0.158  0.0000E+00  0.5604E+02
      0.173  0.0000E+00  0.5604E+02
      0.187  0.0000E+00  0.5604E+02
      0.201  0.2684E-14  0.5604E+02
      0.216  0.4429E-08  0.5604E+02
      0.230  0.1360E-03  0.5604E+02
      0.244  0.8631E-01  0.5604E+02
      0.259  0.1524E+01  0.5606E+02
      0.273  0.1246E+01  0.5608E+02
      0.287  0.4450E-01  0.5608E+02
      0.302  0.4171E-04  0.5608E+02
      0.316  0.7919E-09  0.5608E+02
      0.330  0.2147E-15  0.5608E+02
      0.345  0.0000E+00  0.5608E+02
      0.359  0.0000E+00  0.5608E+02
      0.373  0.0000E+00  0.5608E+02
      0.387  0.0000E+00  0.5608E+02
      0.402  0.0000E+00  0.5608E+02
      0.416  0.0000E+00  0.5608E+02
      0.430  0.0000E+00  0.5608E+02
      0.445  0.0000E+00  0.5608E+02
      0.459  0.0000E+00  0.5608E+02
      0.473  0.0000E+00  0.5608E+02
      0.488  0.0000E+00  0.5608E+02
      0.502  0.0000E+00  0.5608E+02
      0.516  0.2980E-09  0.5608E+02
      0.531  0.2607E-04  0.5608E+02
      0.545  0.4530E-01  0.5608E+02
      0.559  0.1965E+01  0.5611E+02
      0.574  0.3492E+01  0.5616E+02
      0.588  0.2998E+00  0.5617E+02
      0.602  0.7601E-03  0.5617E+02
      0.616  0.4074E-07  0.5617E+02
      0.631  0.4091E-13  0.5617E+02
      0.645  0.0000E+00  0.5617E+02
      0.659  0.1627E-13  0.5617E+02
      0.674  0.2011E-07  0.5617E+02
      0.688  0.4687E-03  0.5617E+02
      0.702  0.2306E+00  0.5617E+02
      0.717  0.3280E+01  0.5622E+02
      0.731  0.2227E+01  0.5625E+02
      0.745  0.6451E-01  0.5625E+02
      0.760  0.4838E-04  0.5625E+02
      0.774  0.7373E-09  0.5625E+02
      0.788  0.0000E+00  0.5625E+02
      0.802  0.0000E+00  0.5625E+02
      0.817  0.0000E+00  0.5625E+02
      0.831  0.0000E+00  0.5625E+02
      0.845  0.0000E+00  0.5625E+02
      0.860  0.0000E+00  0.5625E+02
      0.874  0.0000E+00  0.5625E+02
      0.888  0.0000E+00  0.5625E+02
      0.903  0.1627E-13  0.5625E+02
      0.917  0.1668E-07  0.5625E+02
      0.931  0.3250E-03  0.5625E+02
      0.946  0.1360E+00  0.5625E+02
      0.960  0.1700E+01  0.5628E+02
      0.974  0.1038E+01  0.5629E+02
      0.989  0.2694E-01  0.5629E+02
      1.003  0.1826E-04  0.5629E+02
      1.017  0.1643E-04  0.5629E+02
      1.031  0.2603E-01  0.5629E+02
      1.046  0.1037E+01  0.5631E+02
      1.060  0.1984E+01  0.5633E+02
      1.074  0.2074E+01  0.5636E+02
      1.089  0.6791E+00  0.5637E+02
      1.103  0.5807E+00  0.5638E+02
      1.117  0.1986E+01  0.5641E+02
      1.132  0.1167E+01  0.5643E+02
      1.146  0.4899E+01  0.5650E+02
      1.160  0.4098E+01  0.5656E+02
      1.175  0.4283E+01  0.5662E+02
      1.189  0.3789E+01  0.5667E+02
      1.203  0.4640E+01  0.5674E+02
      1.218  0.4473E+01  0.5680E+02
      1.232  0.6541E+01  0.5690E+02
      1.246  0.6458E+01  0.5699E+02
      1.260  0.1287E+01  0.5701E+02
      1.275  0.5167E+01  0.5708E+02
      1.289  0.2780E+01  0.5712E+02
      1.303  0.1586E+01  0.5714E+02
      1.318  0.7245E+01  0.5725E+02
      1.332  0.1012E+02  0.5739E+02
      1.346  0.9545E+01  0.5753E+02
      1.361  0.1534E+01  0.5755E+02
      1.375  0.1997E+00  0.5755E+02
      1.389  0.1622E+01  0.5758E+02
      1.404  0.2957E+01  0.5762E+02
      1.418  0.3949E+01  0.5767E+02
      1.432  0.2629E+01  0.5771E+02
      1.447  0.4449E+00  0.5772E+02
      1.461  0.2204E+01  0.5775E+02
      1.475  0.2904E+01  0.5779E+02
      1.489  0.5113E+00  0.5780E+02
      1.504  0.4086E+00  0.5781E+02
      1.518  0.3033E+01  0.5785E+02
      1.532  0.4253E+01  0.5791E+02
      1.547  0.1760E+01  0.5793E+02
      1.561  0.3854E+01  0.5799E+02
      1.575  0.5528E+01  0.5807E+02
      1.590  0.1486E+01  0.5809E+02
      1.604  0.1134E+01  0.5811E+02
      1.618  0.1639E+01  0.5813E+02
      1.633  0.1180E+00  0.5813E+02
      1.647  0.9116E-01  0.5813E+02
      1.661  0.1015E+01  0.5815E+02
      1.676  0.2210E+01  0.5818E+02
      1.690  0.2130E+01  0.5821E+02
      1.704  0.8165E+00  0.5822E+02
      1.718  0.3641E-01  0.5822E+02
      1.733  0.4725E+00  0.5823E+02
      1.747  0.2417E+01  0.5826E+02
      1.761  0.3341E+01  0.5831E+02
      1.776  0.5759E+01  0.5839E+02
      1.790  0.1294E+02  0.5858E+02
      1.804  0.1189E+02  0.5875E+02
      1.819  0.3544E+01  0.5880E+02
      1.833  0.2342E+00  0.5880E+02
      1.847  0.8712E-03  0.5880E+02
      1.862  0.2748E-05  0.5880E+02
      1.876  0.9838E-02  0.5880E+02
      1.890  0.9385E+00  0.5882E+02
      1.905  0.3840E+01  0.5887E+02
      1.919  0.1710E+01  0.5890E+02
      1.933  0.1929E+01  0.5892E+02
      1.947  0.1585E+01  0.5895E+02
      1.962  0.3946E+01  0.5900E+02
      1.976  0.1243E+01  0.5902E+02
      1.990  0.9111E+00  0.5903E+02
      2.005  0.3530E+01  0.5908E+02
      2.019  0.1586E+01  0.5911E+02
      2.033  0.4906E-01  0.5911E+02
      2.048  0.3045E+00  0.5911E+02
      2.062  0.2098E+01  0.5914E+02
      2.076  0.2542E+01  0.5918E+02
      2.091  0.8483E+00  0.5919E+02
      2.105  0.9410E+00  0.5920E+02
      2.119  0.7821E+01  0.5932E+02
      2.134  0.1217E+02  0.5949E+02
      2.148  0.1171E+02  0.5966E+02
      2.162  0.2158E+01  0.5969E+02
      2.176  0.7066E-01  0.5969E+02
      2.191  0.1230E+01  0.5971E+02
      2.205  0.1978E+01  0.5974E+02
      2.219  0.2096E+01  0.5977E+02
      2.234  0.4458E+00  0.5977E+02
      2.248  0.1308E-01  0.5977E+02
      2.262  0.6913E+00  0.5978E+02
      2.277  0.3472E+01  0.5983E+02
      2.291  0.4835E+01  0.5990E+02
      2.305  0.2360E+01  0.5993E+02
      2.320  0.2413E+00  0.5994E+02
      2.334  0.5627E+00  0.5995E+02
      2.348  0.1977E+01  0.5997E+02
      2.363  0.3540E+00  0.5998E+02
      2.377  0.4333E-01  0.5998E+02
      2.391  0.1880E+01  0.6001E+02
      2.405  0.3549E+01  0.6006E+02
      2.420  0.4022E+00  0.6006E+02
      2.434  0.3088E+01  0.6011E+02
      2.448  0.7280E+01  0.6021E+02
      2.463  0.2053E+01  0.6024E+02
      2.477  0.2055E+01  0.6027E+02
      2.491  0.2147E+01  0.6030E+02
      2.506  0.2427E+01  0.6034E+02
      2.520  0.4269E+01  0.6040E+02
      2.534  0.3036E+01  0.6044E+02
      2.549  0.1686E+00  0.6044E+02
      2.563  0.5270E-03  0.6044E+02
      2.577  0.1079E+00  0.6044E+02
      2.592  0.1617E+01  0.6047E+02
      2.606  0.1142E+01  0.6048E+02
      2.620  0.3605E-01  0.6048E+02
      2.634  0.4695E+00  0.6049E+02
      2.649  0.4555E+01  0.6056E+02
      2.663  0.4933E+01  0.6063E+02
      2.677  0.1598E+01  0.6065E+02
      2.692  0.8362E+00  0.6066E+02
      2.706  0.3983E+01  0.6072E+02
      2.720  0.1021E+01  0.6073E+02
      2.735  0.1760E-01  0.6073E+02
      2.749  0.6587E+00  0.6074E+02
      2.763  0.2080E+01  0.6077E+02
      2.778  0.2913E+01  0.6081E+02
      2.792  0.5626E+01  0.6090E+02
      2.806  0.2895E+01  0.6094E+02
      2.821  0.1050E+01  0.6095E+02
      2.835  0.2017E+01  0.6098E+02
      2.849  0.1811E+01  0.6101E+02
      2.863  0.1368E+01  0.6103E+02
      2.878  0.1823E+01  0.6105E+02
      2.892  0.1696E+01  0.6108E+02
      2.906  0.1940E+01  0.6110E+02
      2.921  0.1152E+01  0.6112E+02
      2.935  0.1799E+01  0.6115E+02
      2.949  0.1733E+00  0.6115E+02
      2.964  0.1491E-01  0.6115E+02
      2.978  0.1031E+01  0.6116E+02
      2.992  0.3767E+01  0.6122E+02
      3.007  0.1802E+01  0.6124E+02
      3.021  0.2314E+01  0.6128E+02
      3.035  0.2209E+01  0.6131E+02
      3.050  0.4625E+00  0.6131E+02
      3.064  0.5226E-01  0.6132E+02
      3.078  0.1427E+01  0.6134E+02
      3.092  0.2504E+01  0.6137E+02
      3.107  0.3473E+01  0.6142E+02
      3.121  0.6878E+01  0.6152E+02
      3.135  0.3432E+01  0.6157E+02
      3.150  0.4875E+00  0.6158E+02
      3.164  0.2128E+01  0.6161E+02
      3.178  0.3843E+01  0.6166E+02
      3.193  0.6595E+01  0.6176E+02
      3.207  0.1696E+01  0.6178E+02
      3.221  0.2658E+01  0.6182E+02
      3.236  0.2848E+01  0.6186E+02
      3.250  0.6028E+00  0.6187E+02
      3.264  0.2758E+01  0.6191E+02
      3.279  0.4633E+01  0.6197E+02
      3.293  0.4709E+01  0.6204E+02
      3.307  0.6877E+01  0.6214E+02
      3.321  0.1079E+01  0.6215E+02
      3.336  0.1828E+01  0.6218E+02
      3.350  0.1902E+01  0.6221E+02
      3.364  0.1755E+01  0.6223E+02
      3.379  0.1463E+00  0.6224E+02
      3.393  0.1402E-02  0.6224E+02
      3.407  0.2516E+00  0.6224E+02
      3.422  0.1935E+01  0.6227E+02
      3.436  0.2117E+01  0.6230E+02
      3.450  0.3836E+01  0.6235E+02
      3.465  0.5597E+00  0.6236E+02
      3.479  0.4703E-01  0.6236E+02
      3.493  0.1245E+01  0.6238E+02
      3.508  0.1781E+01  0.6240E+02
      3.522  0.3660E+01  0.6246E+02
      3.536  0.6935E+01  0.6256E+02
      3.550  0.5358E+01  0.6263E+02
      3.565  0.1372E+01  0.6265E+02
      3.579  0.2618E+01  0.6269E+02
      3.593  0.2950E+01  0.6273E+02
      3.608  0.1029E+01  0.6275E+02
      3.622  0.3965E+01  0.6280E+02
      3.636  0.9463E+00  0.6282E+02
      3.651  0.1267E-01  0.6282E+02
      3.665  0.7163E+00  0.6283E+02
      3.679  0.3965E+01  0.6288E+02
      3.694  0.1105E+01  0.6290E+02
      3.708  0.1109E-01  0.6290E+02
      3.722  0.2146E-02  0.6290E+02
      3.737  0.5082E+00  0.6291E+02
      3.751  0.4139E+01  0.6297E+02
      3.765  0.5147E+01  0.6304E+02
      3.779  0.4296E+01  0.6310E+02
      3.794  0.6456E+01  0.6319E+02
      3.808  0.4891E+01  0.6326E+02
      3.822  0.2042E+01  0.6329E+02
      3.837  0.4502E+01  0.6336E+02
      3.851  0.3663E+01  0.6341E+02
      3.865  0.4499E+01  0.6347E+02
      3.880  0.4255E+01  0.6354E+02
      3.894  0.6330E+01  0.6363E+02
      3.908  0.2654E+01  0.6366E+02
      3.923  0.2493E+01  0.6370E+02
      3.937  0.2394E+01  0.6373E+02
      3.951  0.4105E+01  0.6379E+02
      3.966  0.1068E+02  0.6395E+02
      3.980  0.7832E+01  0.6406E+02
      3.994  0.8258E+00  0.6407E+02
      4.008  0.3969E-02  0.6407E+02
      4.023  0.4756E-06  0.6407E+02
      4.037  0.6226E-04  0.6407E+02
      4.051  0.3447E-01  0.6407E+02
      4.066  0.6339E+00  0.6408E+02
      4.080  0.2091E+01  0.6411E+02
      4.094  0.4817E+01  0.6418E+02
      4.109  0.1006E+02  0.6432E+02
      4.123  0.7947E+01  0.6444E+02
      4.137  0.1509E+01  0.6446E+02
      4.152  0.1309E+01  0.6448E+02
      4.166  0.4101E+01  0.6453E+02
      4.180  0.4245E+01  0.6460E+02
      4.195  0.2189E+01  0.6463E+02
      4.209  0.5055E+01  0.6470E+02
      4.223  0.7007E+01  0.6480E+02
      4.237  0.3840E+01  0.6485E+02
      4.252  0.1291E+01  0.6487E+02
      4.266  0.1487E+01  0.6489E+02
      4.280  0.1494E+01  0.6492E+02
      4.295  0.3716E+01  0.6497E+02
      4.309  0.8400E+01  0.6509E+02
      4.323  0.5214E+01  0.6516E+02
      4.338  0.4573E+01  0.6523E+02
      4.352  0.8545E+01  0.6535E+02
      4.366  0.7930E+01  0.6546E+02
      4.381  0.7114E+01  0.6557E+02
      4.395  0.3166E+01  0.6561E+02
      4.409  0.7692E+01  0.6572E+02
      4.424  0.1282E+02  0.6591E+02
      4.438  0.5970E+01  0.6599E+02
      4.452  0.2136E+01  0.6602E+02
      4.466  0.2318E+01  0.6605E+02
      4.481  0.4404E+01  0.6612E+02
      4.495  0.5562E+01  0.6620E+02
      4.509  0.7694E+01  0.6631E+02
      4.524  0.1186E+02  0.6648E+02
      4.538  0.1266E+02  0.6666E+02
      4.552  0.1501E+02  0.6687E+02
      4.567  0.6102E+01  0.6696E+02
      4.581  0.5479E+01  0.6704E+02
      4.595  0.4268E+01  0.6710E+02
      4.610  0.4200E+01  0.6716E+02
      4.624  0.2544E+01  0.6720E+02
      4.638  0.1419E+01  0.6722E+02
      4.653  0.6065E+01  0.6730E+02
      4.667  0.6173E+01  0.6739E+02
      4.681  0.5429E+01  0.6747E+02
      4.695  0.1966E+01  0.6750E+02
      4.710  0.5971E+01  0.6758E+02
      4.724  0.9239E+01  0.6772E+02
      4.738  0.4167E+01  0.6777E+02
      4.753  0.5116E+01  0.6785E+02
      4.767  0.4439E+01  0.6791E+02
      4.781  0.8807E+01  0.6804E+02
      4.796  0.1133E+02  0.6820E+02
      4.810  0.5529E+01  0.6828E+02
      4.824  0.2408E+01  0.6831E+02
      4.839  0.2430E+01  0.6835E+02
      4.853  0.5491E+01  0.6843E+02
      4.867  0.9406E+01  0.6856E+02
      4.882  0.1075E+02  0.6872E+02
      4.896  0.1443E+02  0.6892E+02
      4.910  0.8636E+01  0.6905E+02
      4.924  0.6238E+01  0.6913E+02
      4.939  0.1632E+01  0.6916E+02
      4.953  0.5691E+01  0.6924E+02
      4.967  0.1333E+02  0.6943E+02
      4.982  0.5792E+01  0.6951E+02
      4.996  0.2450E+01  0.6955E+02
      5.010  0.6002E+01  0.6963E+02
      5.025  0.1983E+01  0.6966E+02
      5.039  0.4367E+01  0.6973E+02
      5.053  0.7197E+01  0.6983E+02
      5.068  0.7360E+01  0.6993E+02
      5.082  0.2262E+01  0.6997E+02
      5.096  0.8660E+01  0.7009E+02
      5.111  0.4798E+01  0.7016E+02
      5.125  0.2178E+01  0.7019E+02
      5.139  0.2881E+01  0.7023E+02
      5.153  0.7924E+01  0.7034E+02
      5.168  0.9564E+01  0.7048E+02
      5.182  0.5443E+01  0.7056E+02
      5.196  0.1012E+02  0.7070E+02
      5.211  0.8715E+01  0.7083E+02
      5.225  0.3957E+01  0.7089E+02
      5.239  0.5123E+01  0.7096E+02
      5.254  0.4363E+01  0.7102E+02
      5.268  0.1859E+01  0.7105E+02
      5.282  0.5364E+01  0.7112E+02
      5.297  0.1057E+02  0.7128E+02
      5.311  0.9678E+01  0.7141E+02
      5.325  0.1076E+02  0.7157E+02
      5.340  0.9006E+01  0.7170E+02
      5.354  0.1144E+02  0.7186E+02
      5.368  0.1561E+02  0.7208E+02
      5.382  0.6793E+01  0.7218E+02
      5.397  0.2589E+01  0.7222E+02
      5.411  0.3424E+01  0.7227E+02
      5.425  0.1967E+01  0.7230E+02
      5.440  0.2634E+01  0.7233E+02
      5.454  0.1380E+01  0.7235E+02
      5.468  0.2892E+01  0.7239E+02
      5.483  0.8438E+01  0.7252E+02
      5.497  0.5736E+01  0.7260E+02
      5.511  0.2898E+01  0.7264E+02
      5.526  0.2622E+01  0.7268E+02
      5.540  0.5656E+01  0.7276E+02
      5.554  0.1223E+01  0.7277E+02
      5.569  0.5047E+01  0.7285E+02
      5.583  0.6467E+01  0.7294E+02
      5.597  0.1311E+02  0.7313E+02
      5.611  0.1680E+02  0.7337E+02
      5.626  0.8131E+01  0.7348E+02
      5.640  0.6093E+01  0.7357E+02
      5.654  0.2016E+01  0.7360E+02
      5.669  0.2766E+01  0.7364E+02
      5.683  0.4373E+01  0.7370E+02
      5.697  0.6417E+01  0.7379E+02
      5.712  0.3786E+01  0.7385E+02
      5.726  0.2301E+01  0.7388E+02
      5.740  0.1524E+01  0.7390E+02
      5.755  0.2017E+01  0.7393E+02
      5.769  0.3628E+01  0.7398E+02
      5.783  0.4505E+01  0.7405E+02
      5.798  0.1600E+01  0.7407E+02
      5.812  0.1087E+02  0.7423E+02
      5.826  0.1290E+02  0.7441E+02
      5.840  0.1540E+01  0.7443E+02
      5.855  0.5929E+01  0.7452E+02
      5.869  0.7996E+01  0.7463E+02
      5.883  0.4864E+01  0.7470E+02
      5.898  0.9416E+01  0.7484E+02
      5.912  0.3446E+01  0.7489E+02
      5.926  0.2495E+01  0.7492E+02
      5.941  0.4914E+01  0.7499E+02
      5.955  0.1788E+01  0.7502E+02
      5.969  0.2003E+01  0.7505E+02
      5.984  0.1098E+01  0.7506E+02
      5.998  0.5031E+01  0.7513E+02
      6.012  0.1554E+02  0.7536E+02
      6.027  0.1404E+02  0.7556E+02
      6.041  0.2297E+01  0.7559E+02
      6.055  0.1511E+01  0.7561E+02
      6.069  0.7752E+01  0.7572E+02
      6.084  0.1238E+02  0.7590E+02
      6.098  0.1032E+02  0.7605E+02
      6.112  0.5231E+01  0.7612E+02
      6.127  0.4273E+01  0.7618E+02
      6.141  0.6280E+01  0.7627E+02
      6.155  0.3732E+01  0.7633E+02
      6.170  0.5707E+01  0.7641E+02
      6.184  0.1906E+01  0.7644E+02
      6.198  0.5781E+01  0.7652E+02
      6.213  0.5801E+01  0.7660E+02
      6.227  0.6689E+01  0.7670E+02
      6.241  0.6095E+01  0.7679E+02
      6.255  0.1058E+02  0.7694E+02
      6.270  0.9126E+01  0.7707E+02
      6.284  0.7621E+01  0.7718E+02
      6.298  0.1281E+02  0.7736E+02
      6.313  0.4049E+01  0.7742E+02
      6.327  0.4809E+00  0.7742E+02
      6.341  0.3622E+01  0.7748E+02
      6.356  0.1853E+01  0.7750E+02
      6.370  0.2547E+01  0.7754E+02
      6.384  0.3448E+01  0.7759E+02
      6.399  0.2205E+01  0.7762E+02
      6.413  0.1510E+01  0.7764E+02
      6.427  0.5511E+01  0.7772E+02
      6.442  0.6613E+01  0.7782E+02
      6.456  0.3971E+01  0.7787E+02
      6.470  0.2905E+01  0.7791E+02
      6.484  0.3282E+01  0.7796E+02
      6.499  0.3430E+01  0.7801E+02
      6.513  0.4937E+01  0.7808E+02
      6.527  0.1148E+02  0.7824E+02
      6.542  0.1105E+02  0.7840E+02
      6.556  0.6758E+01  0.7850E+02
      6.570  0.2573E+01  0.7854E+02
      6.585  0.2185E+01  0.7857E+02
      6.599  0.1098E+02  0.7872E+02
      6.613  0.1433E+02  0.7893E+02
      6.628  0.8156E+01  0.7905E+02
      6.642  0.6027E+01  0.7913E+02
      6.656  0.3369E+01  0.7918E+02
      6.671  0.5609E+01  0.7926E+02
      6.685  0.4636E+01  0.7933E+02
      6.699  0.2933E+01  0.7937E+02
      6.713  0.1865E+01  0.7940E+02
      6.728  0.3663E+01  0.7945E+02
      6.742  0.9484E+01  0.7958E+02
      6.756  0.4632E+01  0.7965E+02
      6.771  0.6335E+01  0.7974E+02
      6.785  0.2925E+01  0.7978E+02
      6.799  0.4027E+00  0.7979E+02
      6.814  0.1941E+01  0.7982E+02
      6.828  0.2165E+01  0.7985E+02
      6.842  0.4001E+01  0.7991E+02
      6.857  0.5835E+01  0.7999E+02
      6.871  0.8302E+01  0.8011E+02
      6.885  0.1040E+01  0.8012E+02
      6.900  0.4764E+01  0.8019E+02
      6.914  0.8844E+01  0.8032E+02
      6.928  0.6458E+01  0.8041E+02
      6.942  0.3185E+01  0.8046E+02
      6.957  0.5328E+01  0.8053E+02
      6.971  0.7727E+01  0.8064E+02
      6.985  0.2185E+01  0.8067E+02
      7.000  0.5268E+01  0.8075E+02
      7.014  0.4466E+01  0.8081E+02
      7.028  0.1161E+02  0.8098E+02
      7.043  0.1250E+02  0.8116E+02
      7.057  0.5152E+01  0.8123E+02
      7.071  0.4981E+01  0.8130E+02
      7.086  0.4310E+01  0.8136E+02
      7.100  0.4292E+01  0.8143E+02
      7.114  0.3842E+01  0.8148E+02
      7.129  0.3560E+01  0.8153E+02
      7.143  0.3110E+00  0.8154E+02
      7.157  0.1945E+00  0.8154E+02
      7.171  0.5224E+01  0.8161E+02
      7.186  0.9943E+01  0.8176E+02
      7.200  0.4921E+01  0.8183E+02
      7.214  0.5234E+01  0.8190E+02
      7.229  0.7563E+01  0.8201E+02
      7.243  0.1972E+01  0.8204E+02
      7.257  0.3626E+01  0.8209E+02
      7.272  0.5794E+01  0.8217E+02
      7.286  0.7852E+01  0.8229E+02
      7.300  0.1366E+02  0.8248E+02
      7.315  0.1358E+02  0.8268E+02
      7.329  0.7903E+01  0.8279E+02
      7.343  0.1275E+02  0.8297E+02
      7.358  0.4082E+01  0.8303E+02
      7.372  0.2505E+00  0.8303E+02
      7.386  0.3033E+01  0.8308E+02
      7.400  0.7933E+01  0.8319E+02
      7.415  0.1242E+02  0.8337E+02
      7.429  0.1151E+02  0.8353E+02
      7.443  0.6975E+01  0.8363E+02
      7.458  0.8481E+01  0.8375E+02
      7.472  0.8600E+01  0.8388E+02
      7.486  0.4304E+01  0.8394E+02
      7.501  0.9725E+01  0.8408E+02
      7.515  0.9049E+01  0.8421E+02
      7.529  0.1596E+02  0.8444E+02
      7.544  0.1160E+02  0.8460E+02
      7.558  0.3078E+01  0.8465E+02
      7.572  0.2019E+01  0.8467E+02
      7.587  0.7871E+01  0.8479E+02
      7.601  0.1155E+02  0.8495E+02
      7.615  0.1097E+02  0.8511E+02
      7.629  0.7378E+01  0.8521E+02
      7.644  0.9154E+01  0.8535E+02
      7.658  0.3981E+01  0.8540E+02
      7.672  0.3239E+01  0.8545E+02
      7.687  0.9840E+01  0.8559E+02
      7.701  0.1231E+02  0.8577E+02
      7.715  0.1080E+02  0.8592E+02
      7.730  0.3951E+01  0.8598E+02
      7.744  0.2433E+00  0.8598E+02
      7.758  0.2311E+01  0.8601E+02
      7.773  0.5000E+01  0.8609E+02
      7.787  0.2976E+01  0.8613E+02
      7.801  0.2079E+01  0.8616E+02
      7.816  0.6820E+01  0.8626E+02
      7.830  0.1209E+02  0.8643E+02
      7.844  0.7473E+01  0.8654E+02
      7.858  0.2993E+01  0.8658E+02
      7.873  0.6946E+01  0.8668E+02
      7.887  0.3858E+01  0.8673E+02
      7.901  0.1683E+01  0.8676E+02
      7.916  0.5549E+01  0.8684E+02
      7.930  0.4309E+01  0.8690E+02
      7.944  0.4539E+01  0.8696E+02
      7.959  0.4959E+01  0.8703E+02
      7.973  0.4332E+01  0.8710E+02
      7.987  0.2926E+01  0.8714E+02
      8.002  0.4864E+01  0.8721E+02
      8.016  0.7036E+01  0.8731E+02
      8.030  0.7211E+01  0.8741E+02
      8.045  0.7472E+01  0.8752E+02
      8.059  0.8609E+01  0.8764E+02
      8.073  0.7351E+01  0.8775E+02
      8.087  0.9169E+01  0.8788E+02
      8.102  0.8136E+01  0.8799E+02
      8.116  0.6612E+01  0.8809E+02
      8.130  0.6799E+01  0.8819E+02
      8.145  0.5168E+01  0.8826E+02
      8.159  0.2862E+01  0.8830E+02
      8.173  0.1033E+02  0.8845E+02
      8.188  0.1116E+02  0.8861E+02
      8.202  0.5995E+01  0.8869E+02
      8.216  0.3139E+01  0.8874E+02
      8.231  0.1851E+01  0.8877E+02
      8.245  0.1921E+00  0.8877E+02
      8.259  0.2139E+01  0.8880E+02
      8.274  0.8018E+01  0.8891E+02
      8.288  0.9933E+01  0.8906E+02
      8.302  0.8782E+01  0.8918E+02
      8.316  0.2461E+01  0.8922E+02
      8.331  0.1921E+01  0.8924E+02
      8.345  0.8456E+01  0.8937E+02
      8.359  0.1271E+02  0.8955E+02
      8.374  0.9469E+01  0.8968E+02
      8.388  0.6742E+01  0.8978E+02
      8.402  0.6246E+00  0.8979E+02
      8.417  0.5532E+01  0.8987E+02
      8.431  0.1357E+02  0.9006E+02
      8.445  0.1551E+02  0.9028E+02
      8.460  0.1203E+02  0.9046E+02
      8.474  0.5002E+01  0.9053E+02
      8.488  0.8282E+01  0.9065E+02
      8.503  0.9781E+01  0.9079E+02
      8.517  0.1358E+02  0.9098E+02
      8.531  0.1201E+02  0.9115E+02
      8.545  0.3950E+01  0.9121E+02
      8.560  0.4059E+01  0.9127E+02
      8.574  0.3097E+01  0.9131E+02
      8.588  0.4663E+01  0.9138E+02
      8.603  0.6259E+01  0.9147E+02
      8.617  0.4829E+01  0.9154E+02
      8.631  0.8472E+01  0.9166E+02
      8.646  0.6833E+01  0.9176E+02
      8.660  0.8547E+01  0.9188E+02
      8.674  0.1482E+02  0.9209E+02
      8.689  0.5209E+01  0.9216E+02
      8.703  0.2736E+01  0.9220E+02
      8.717  0.6592E+01  0.9230E+02
      8.732  0.7088E+01  0.9240E+02
      8.746  0.6910E+01  0.9250E+02
      8.760  0.6820E+01  0.9260E+02
      8.774  0.5253E+01  0.9267E+02
      8.789  0.1327E+02  0.9286E+02
      8.803  0.1252E+02  0.9304E+02
      8.817  0.1145E+02  0.9320E+02
      8.832  0.8973E+01  0.9333E+02
      8.846  0.4793E+01  0.9340E+02
      8.860  0.1101E+01  0.9342E+02
      8.875  0.6844E+01  0.9351E+02
      8.889  0.1248E+02  0.9369E+02
      8.903  0.6207E+01  0.9378E+02
      8.918  0.8102E+01  0.9390E+02
      8.932  0.1603E+02  0.9413E+02
      8.946  0.7856E+01  0.9424E+02
      8.961  0.3845E+01  0.9430E+02
      8.975  0.3317E+01  0.9434E+02
      8.989  0.7995E+01  0.9446E+02
      9.003  0.9886E+01  0.9460E+02
      9.018  0.1234E+02  0.9478E+02
      9.032  0.1238E+02  0.9495E+02
      9.046  0.1263E+02  0.9513E+02
      9.061  0.9824E+01  0.9527E+02
      9.075  0.6142E+01  0.9536E+02
      9.089  0.5403E+01  0.9544E+02
      9.104  0.2687E+01  0.9548E+02
      9.118  0.4012E+01  0.9553E+02
      9.132  0.1104E+02  0.9569E+02
      9.147  0.1661E+02  0.9593E+02
      9.161  0.1179E+02  0.9610E+02
      9.175  0.5487E+01  0.9618E+02
      9.190  0.3316E+01  0.9623E+02
      9.204  0.8793E+01  0.9635E+02
      9.218  0.1054E+02  0.9650E+02
      9.232  0.1012E+02  0.9665E+02
      9.247  0.1788E+02  0.9690E+02
      9.261  0.1309E+02  0.9709E+02
      9.275  0.1874E+02  0.9736E+02
      9.290  0.1544E+02  0.9758E+02
      9.304  0.1584E+02  0.9781E+02
      9.318  0.9858E+01  0.9795E+02
      9.333  0.6496E+01  0.9804E+02
      9.347  0.1091E+02  0.9820E+02
      9.361  0.2037E+02  0.9849E+02
      9.376  0.1742E+02  0.9874E+02
      9.390  0.1612E+02  0.9897E+02
      9.404  0.8898E+01  0.9909E+02
      9.419  0.1695E+02  0.9934E+02
      9.433  0.1846E+02  0.9960E+02
      9.447  0.7955E+01  0.9972E+02
      9.461  0.3379E+01  0.9976E+02
      9.476  0.4162E+01  0.9982E+02
      9.490  0.4243E+01  0.9988E+02
      9.504  0.6602E+01  0.9998E+02
      9.519  0.7497E+01  0.1001E+03
      9.533  0.7960E+01  0.1002E+03
      9.547  0.9189E+01  0.1003E+03
      9.562  0.9192E+01  0.1005E+03
      9.576  0.1365E+02  0.1007E+03
      9.590  0.1423E+02  0.1009E+03
      9.605  0.1833E+02  0.1011E+03
      9.619  0.7449E+01  0.1012E+03
      9.633  0.5371E+01  0.1013E+03
      9.648  0.5240E+01  0.1014E+03
      9.662  0.1134E+02  0.1015E+03
      9.676  0.1827E+02  0.1018E+03
      9.690  0.1588E+02  0.1020E+03
      9.705  0.1132E+02  0.1022E+03
      9.719  0.6831E+01  0.1023E+03
      9.733  0.6230E+01  0.1024E+03
      9.748  0.9849E+01  0.1025E+03
      9.762  0.9843E+01  0.1027E+03
      9.776  0.4857E+01  0.1027E+03
      9.791  0.2371E+01  0.1028E+03
      9.805  0.3007E+01  0.1028E+03
      9.819  0.5446E+01  0.1029E+03
      9.834  0.1237E+02  0.1031E+03
      9.848  0.1082E+02  0.1032E+03
      9.862  0.1454E+02  0.1034E+03
      9.877  0.1097E+02  0.1036E+03
      9.891  0.1591E+01  0.1036E+03
      9.905  0.7442E+01  0.1037E+03
      9.919  0.1577E+02  0.1039E+03
      9.934  0.1522E+02  0.1042E+03
      9.948  0.1501E+02  0.1044E+03
      9.962  0.1200E+02  0.1045E+03
      9.977  0.6958E+01  0.1046E+03
      9.991  0.2873E+01  0.1047E+03
     10.005  0.3745E+01  0.1047E+03
     10.020  0.6738E+01  0.1048E+03
     10.034  0.5176E+01  0.1049E+03
     10.048  0.9360E+01  0.1050E+03
     10.063  0.1437E+02  0.1053E+03
     10.077  0.1324E+02  0.1054E+03
     10.091  0.1475E+02  0.1057E+03
     10.106  0.1129E+02  0.1058E+03
     10.120  0.5187E+01  0.1059E+03
     10.134  0.8988E+01  0.1060E+03
     10.148  0.6271E+01  0.1061E+03
     10.163  0.6868E+01  0.1062E+03
     10.177  0.1321E+02  0.1064E+03
     10.191  0.1043E+02  0.1065E+03
     10.206  0.7272E+01  0.1066E+03
     10.220  0.9970E+01  0.1068E+03
     10.234  0.1264E+02  0.1070E+03
     10.249  0.9730E+01  0.1071E+03
     10.263  0.1422E+02  0.1073E+03
     10.277  0.2056E+02  0.1076E+03
     10.292  0.8593E+01  0.1077E+03
     10.306  0.4748E+01  0.1078E+03
     10.320  0.7776E+01  0.1079E+03
     10.335  0.3905E+01  0.1080E+03
     10.349  0.4467E+01  0.1080E+03
     10.363  0.6902E+01  0.1081E+03
     10.377  0.1102E+02  0.1083E+03
     10.392  0.7058E+01  0.1084E+03
     10.406  0.1662E+01  0.1084E+03
     10.420  0.3650E+01  0.1085E+03
     10.435  0.1151E+02  0.1086E+03
     10.449  0.9051E+01  0.1088E+03
     10.463  0.1228E+02  0.1089E+03
     10.478  0.7931E+01  0.1090E+03
     10.492  0.9131E+01  0.1092E+03
     10.506  0.1055E+02  0.1093E+03
     10.521  0.1005E+02  0.1095E+03
     10.535  0.1398E+02  0.1097E+03
     10.549  0.4241E+01  0.1097E+03
     10.564  0.2382E+01  0.1098E+03
     10.578  0.5846E+01  0.1098E+03
     10.592  0.1182E+02  0.1100E+03
     10.606  0.1874E+02  0.1103E+03
     10.621  0.1902E+02  0.1106E+03
     10.635  0.1402E+02  0.1108E+03
     10.649  0.7009E+01  0.1109E+03
     10.664  0.4061E+01  0.1109E+03
     10.678  0.9365E+01  0.1111E+03
     10.692  0.4473E+01  0.1111E+03
     10.707  0.4399E+01  0.1112E+03
     10.721  0.8258E+01  0.1113E+03
     10.735  0.1711E+02  0.1115E+03
     10.750  0.1642E+02  0.1118E+03
     10.764  0.5632E+01  0.1119E+03
     10.778  0.8565E+01  0.1120E+03
     10.793  0.9516E+01  0.1121E+03
     10.807  0.5418E+01  0.1122E+03
     10.821  0.1144E+02  0.1124E+03
     10.835  0.1621E+02  0.1126E+03
     10.850  0.1238E+02  0.1128E+03
     10.864  0.8393E+01  0.1129E+03
     10.878  0.1752E+02  0.1131E+03
     10.893  0.1386E+02  0.1133E+03
     10.907  0.1314E+02  0.1135E+03
     10.921  0.9516E+01  0.1137E+03
     10.936  0.5669E+01  0.1137E+03
     10.950  0.2736E+01  0.1138E+03
     10.964  0.1066E+02  0.1139E+03
     10.979  0.1458E+02  0.1141E+03
     10.993  0.9880E+01  0.1143E+03
     11.007  0.3576E+01  0.1143E+03
     11.022  0.7524E+01  0.1144E+03
     11.036  0.7879E+01  0.1146E+03
     11.050  0.8400E+01  0.1147E+03
     11.064  0.7759E+01  0.1148E+03
     11.079  0.1174E+02  0.1150E+03
     11.093  0.1105E+02  0.1151E+03
     11.107  0.8206E+01  0.1152E+03
     11.122  0.5439E+01  0.1153E+03
     11.136  0.8267E+01  0.1154E+03
     11.150  0.6645E+01  0.1155E+03
     11.165  0.8195E+01  0.1156E+03
     11.179  0.8754E+01  0.1158E+03
     11.193  0.6819E+01  0.1159E+03
     11.208  0.8050E+01  0.1160E+03
     11.222  0.9634E+01  0.1161E+03
     11.236  0.7630E+01  0.1162E+03
     11.251  0.1037E+02  0.1164E+03
     11.265  0.8337E+01  0.1165E+03
     11.279  0.7063E+01  0.1166E+03
     11.293  0.4819E+01  0.1167E+03
     11.308  0.8364E+01  0.1168E+03
     11.322  0.1560E+02  0.1170E+03
     11.336  0.1099E+02  0.1172E+03
     11.351  0.1177E+02  0.1173E+03
     11.365  0.1220E+02  0.1175E+03
     11.379  0.5907E+01  0.1176E+03
     11.394  0.8879E+00  0.1176E+03
     11.408  0.5106E+01  0.1177E+03
     11.422  0.9763E+01  0.1178E+03
     11.437  0.8159E+01  0.1179E+03
     11.451  0.5177E+01  0.1180E+03
     11.465  0.3670E+01  0.1181E+03
     11.480  0.1659E+02  0.1183E+03
     11.494  0.9277E+01  0.1184E+03
     11.508  0.6490E+01  0.1185E+03
     11.522  0.9489E+01  0.1187E+03
     11.537  0.5239E+01  0.1187E+03
     11.551  0.6169E+01  0.1188E+03
     11.565  0.6658E+01  0.1189E+03
     11.580  0.5666E+01  0.1190E+03
     11.594  0.1041E+02  0.1191E+03
     11.608  0.1086E+02  0.1193E+03
     11.623  0.9876E+01  0.1194E+03
     11.637  0.8964E+01  0.1196E+03
     11.651  0.6931E+01  0.1197E+03
     11.666  0.1043E+02  0.1198E+03
     11.680  0.4221E+01  0.1199E+03
     11.694  0.4089E+00  0.1199E+03
     11.708  0.4641E+01  0.1200E+03
     11.723  0.4177E+01  0.1200E+03
     11.737  0.2572E+01  0.1200E+03
     11.751  0.5597E+01  0.1201E+03
     11.766  0.3989E+01  0.1202E+03
     11.780  0.9263E+01  0.1203E+03
     11.794  0.1618E+02  0.1206E+03
     11.809  0.4192E+01  0.1206E+03
     11.823  0.2959E+01  0.1207E+03
     11.837  0.5825E+01  0.1207E+03
     11.852  0.4460E+01  0.1208E+03
     11.866  0.8299E+01  0.1209E+03
     11.880  0.6145E+01  0.1210E+03
     11.895  0.1656E+01  0.1210E+03
     11.909  0.1863E+01  0.1211E+03
     11.923  0.4624E+01  0.1211E+03
     11.937  0.1432E+02  0.1213E+03
     11.952  0.1161E+02  0.1215E+03
     11.966  0.8157E+01  0.1216E+03
     11.980  0.9885E+01  0.1218E+03
     11.995  0.1391E+02  0.1220E+03
     12.009  0.7922E+01  0.1221E+03
     12.023  0.9005E+01  0.1222E+03
     12.038  0.1000E+02  0.1223E+03
     12.052  0.6734E+01  0.1224E+03
     12.066  0.7297E+01  0.1225E+03
     12.081  0.8147E+01  0.1227E+03
     12.095  0.7594E+01  0.1228E+03
     12.109  0.1394E+02  0.1230E+03
     12.124  0.1534E+02  0.1232E+03
     12.138  0.1660E+02  0.1234E+03
     12.152  0.6345E+01  0.1235E+03
     12.166  0.2047E+01  0.1235E+03
     12.181  0.5360E+00  0.1235E+03
     12.195  0.5540E+01  0.1236E+03
     12.209  0.8176E+01  0.1237E+03
     12.224  0.7587E+01  0.1239E+03
     12.238  0.5852E+01  0.1239E+03
     12.252  0.6050E+01  0.1240E+03
     12.267  0.6569E+01  0.1241E+03
     12.281  0.8258E+01  0.1242E+03
     12.295  0.1210E+02  0.1244E+03
     12.310  0.1168E+02  0.1246E+03
     12.324  0.8302E+01  0.1247E+03
     12.338  0.8529E+01  0.1248E+03
     12.353  0.1110E+02  0.1250E+03
     12.367  0.1208E+02  0.1251E+03
     12.381  0.7070E+01  0.1252E+03
     12.395  0.3662E+01  0.1253E+03
     12.410  0.1145E+02  0.1255E+03
     12.424  0.2091E+02  0.1258E+03
     12.438  0.1121E+02  0.1259E+03
     12.453  0.6551E+01  0.1260E+03
     12.467  0.6472E+01  0.1261E+03
     12.481  0.6102E+01  0.1262E+03
     12.496  0.6610E+01  0.1263E+03
     12.510  0.4684E+01  0.1264E+03
     12.524  0.5616E+01  0.1264E+03
     12.539  0.3927E+01  0.1265E+03
     12.553  0.1043E+01  0.1265E+03
     12.567  0.1291E+01  0.1265E+03
     12.582  0.7244E+01  0.1266E+03
     12.596  0.1485E+02  0.1268E+03
     12.610  0.1468E+02  0.1271E+03
     12.624  0.1096E+02  0.1272E+03
     12.639  0.8555E+01  0.1273E+03
     12.653  0.1437E+02  0.1275E+03
     12.667  0.7254E+01  0.1276E+03
     12.682  0.5450E+01  0.1277E+03
     12.696  0.5519E+01  0.1278E+03
     12.710  0.8797E+01  0.1279E+03
     12.725  0.7817E+01  0.1280E+03
     12.739  0.4731E+01  0.1281E+03
     12.753  0.8085E+01  0.1282E+03
     12.768  0.8343E+01  0.1283E+03
     12.782  0.4908E+01  0.1284E+03
     12.796  0.3655E+01  0.1285E+03
     12.811  0.6879E+01  0.1286E+03
     12.825  0.1173E+02  0.1287E+03
     12.839  0.1469E+02  0.1289E+03
     12.853  0.1730E+02  0.1292E+03
     12.868  0.1014E+02  0.1293E+03
     12.882  0.5266E+01  0.1294E+03
     12.896  0.6789E+01  0.1295E+03
     12.911  0.7914E+01  0.1296E+03
     12.925  0.3660E+01  0.1297E+03
     12.939  0.1136E+01  0.1297E+03
     12.954  0.4721E+01  0.1298E+03
     12.968  0.8682E+01  0.1299E+03
     12.982  0.3342E+01  0.1299E+03
     12.997  0.1841E+01  0.1300E+03
     13.011  0.6193E+01  0.1300E+03
     13.025  0.3666E+01  0.1301E+03
     13.040  0.2417E+01  0.1301E+03
     13.054  0.4303E+01  0.1302E+03
     13.068  0.1452E+02  0.1304E+03
     13.082  0.1181E+02  0.1306E+03
     13.097  0.1079E+02  0.1307E+03
     13.111  0.9547E+01  0.1309E+03
     13.125  0.8219E+01  0.1310E+03
     13.140  0.1405E+02  0.1312E+03
     13.154  0.1887E+02  0.1314E+03
     13.168  0.1091E+02  0.1316E+03
     13.183  0.1119E+02  0.1318E+03
     13.197  0.1551E+02  0.1320E+03
     13.211  0.9770E+01  0.1321E+03
     13.226  0.1978E+02  0.1324E+03
     13.240  0.1504E+02  0.1326E+03
     13.254  0.9449E+01  0.1328E+03
     13.269  0.3334E+01  0.1328E+03
     13.283  0.5503E+01  0.1329E+03
     13.297  0.8741E+01  0.1330E+03
     13.311  0.5672E+01  0.1331E+03
     13.326  0.5036E+01  0.1332E+03
     13.340  0.8509E+01  0.1333E+03
     13.354  0.6510E+01  0.1334E+03
     13.369  0.4232E+01  0.1334E+03
     13.383  0.5538E+01  0.1335E+03
     13.397  0.1122E+02  0.1337E+03
     13.412  0.8942E+01  0.1338E+03
     13.426  0.5692E+01  0.1339E+03
     13.440  0.6954E+01  0.1340E+03
     13.455  0.6325E+01  0.1341E+03
     13.469  0.6017E+01  0.1342E+03
     13.483  0.4689E+01  0.1342E+03
     13.498  0.1004E+02  0.1344E+03
     13.512  0.8422E+01  0.1345E+03
     13.526  0.1145E+02  0.1347E+03
     13.540  0.7799E+01  0.1348E+03
     13.555  0.5722E+01  0.1349E+03
     13.569  0.4578E+01  0.1349E+03
     13.583  0.8206E+01  0.1350E+03
     13.598  0.1022E+02  0.1352E+03
     13.612  0.6097E+01  0.1353E+03
     13.626  0.5518E+01  0.1354E+03
     13.641  0.7093E+01  0.1355E+03
     13.655  0.1098E+02  0.1356E+03
     13.669  0.1177E+02  0.1358E+03
     13.684  0.9676E+01  0.1359E+03
     13.698  0.8493E+01  0.1360E+03
     13.712  0.2128E+01  0.1361E+03
     13.727  0.7383E+00  0.1361E+03
     13.741  0.5183E+01  0.1362E+03
     13.755  0.1432E+02  0.1364E+03
     13.769  0.1672E+02  0.1366E+03
     13.784  0.1251E+02  0.1368E+03
     13.798  0.6004E+01  0.1369E+03
     13.812  0.6856E+01  0.1370E+03
     13.827  0.9849E+01  0.1371E+03
     13.841  0.4732E+01  0.1372E+03
     13.855  0.4584E+01  0.1372E+03
     13.870  0.7409E+01  0.1373E+03
     13.884  0.5015E+01  0.1374E+03
     13.898  0.1766E+01  0.1374E+03
     13.913  0.2390E+01  0.1375E+03
     13.927  0.9668E+01  0.1376E+03
     13.941  0.8970E+01  0.1377E+03
     13.956  0.8764E+01  0.1379E+03
     13.970  0.9336E+01  0.1380E+03
     13.984  0.6707E+01  0.1381E+03
     13.998  0.7409E+01  0.1382E+03
     14.013  0.9411E+01  0.1383E+03
     14.027  0.8473E+01  0.1385E+03
     14.041  0.4488E+01  0.1385E+03
     14.056  0.7280E+01  0.1386E+03
     14.070  0.1007E+02  0.1388E+03
     14.084  0.4154E+01  0.1388E+03
     14.099  0.5278E+01  0.1389E+03
     14.113  0.8137E+01  0.1390E+03
     14.127  0.1404E+02  0.1392E+03
     14.142  0.1047E+02  0.1394E+03
     14.156  0.8216E+01  0.1395E+03
     14.170  0.9569E+01  0.1396E+03
     14.185  0.8685E+01  0.1398E+03
     14.199  0.6617E+01  0.1398E+03
     14.213  0.1279E+02  0.1400E+03
     14.227  0.1528E+02  0.1402E+03
     14.242  0.9897E+01  0.1404E+03
     14.256  0.1383E+02  0.1406E+03
     14.270  0.1687E+02  0.1408E+03
     14.285  0.1163E+02  0.1410E+03
     14.299  0.5136E+01  0.1411E+03
     14.313  0.6615E+01  0.1412E+03
     14.328  0.5310E+01  0.1412E+03
     14.342  0.1103E+02  0.1414E+03
     14.356  0.1064E+02  0.1415E+03
     14.371  0.1282E+02  0.1417E+03
     14.385  0.7546E+01  0.1418E+03
     14.399  0.1308E+02  0.1420E+03
     14.414  0.1481E+02  0.1422E+03
     14.428  0.1694E+02  0.1425E+03
     14.442  0.1811E+02  0.1427E+03
     14.456  0.1032E+02  0.1429E+03
     14.471  0.7435E+01  0.1430E+03
     14.485  0.6124E+01  0.1431E+03
     14.499  0.1493E+02  0.1433E+03
     14.514  0.1626E+02  0.1435E+03
     14.528  0.1280E+02  0.1437E+03
     14.542  0.1034E+02  0.1439E+03
     14.557  0.1148E+02  0.1440E+03
     14.571  0.6810E+01  0.1441E+03
     14.585  0.1079E+02  0.1443E+03
     14.600  0.1322E+02  0.1445E+03
     14.614  0.1224E+02  0.1446E+03
     14.628  0.1365E+02  0.1448E+03
     14.643  0.7865E+01  0.1449E+03
     14.657  0.5992E+01  0.1450E+03
     14.671  0.1231E+02  0.1452E+03
     14.685  0.8465E+01  0.1453E+03
     14.700  0.1324E+02  0.1455E+03
     14.714  0.1835E+02  0.1458E+03
     14.728  0.1455E+02  0.1460E+03
     14.743  0.1060E+02  0.1461E+03
     14.757  0.1534E+02  0.1464E+03
     14.771  0.1201E+02  0.1465E+03
     14.786  0.8100E+01  0.1467E+03
     14.800  0.5621E+01  0.1467E+03
     14.814  0.3673E+01  0.1468E+03
     14.829  0.5626E+01  0.1469E+03
     14.843  0.4995E+01  0.1469E+03
     14.857  0.9372E+01  0.1471E+03
     14.872  0.1363E+02  0.1473E+03
     14.886  0.1754E+02  0.1475E+03
     14.900  0.1136E+02  0.1477E+03
     14.914  0.1235E+02  0.1479E+03
     14.929  0.1164E+02  0.1480E+03
     14.943  0.1272E+02  0.1482E+03
     14.957  0.1074E+02  0.1484E+03
     14.972  0.8704E+01  0.1485E+03
     14.986  0.8468E+01  0.1486E+03
     15.000  0.5311E+01  0.1487E+03
     15.015  0.4769E+01  0.1487E+03
     15.029  0.1073E+02  0.1489E+03
     15.043  0.7516E+01  0.1490E+03
     15.058  0.8884E+01  0.1491E+03
     15.072  0.1302E+02  0.1493E+03
     15.086  0.9721E+01  0.1495E+03
     15.101  0.4722E+01  0.1495E+03
     15.115  0.1092E+02  0.1497E+03
     15.129  0.1121E+02  0.1498E+03
     15.143  0.8275E+01  0.1500E+03
     15.158  0.1215E+02  0.1501E+03
     15.172  0.9928E+01  0.1503E+03
     15.186  0.1356E+02  0.1505E+03
     15.201  0.9605E+01  0.1506E+03
     15.215  0.1180E+02  0.1508E+03
     15.229  0.7562E+01  0.1509E+03
     15.244  0.5420E+01  0.1510E+03
     15.258  0.8005E+01  0.1511E+03
     15.272  0.1478E+02  0.1513E+03
     15.287  0.1151E+02  0.1515E+03
     15.301  0.5747E+01  0.1515E+03
     15.315  0.5771E+01  0.1516E+03
     15.330  0.1061E+02  0.1518E+03
     15.344  0.1290E+02  0.1520E+03
     15.358  0.1147E+02  0.1521E+03
     15.372  0.8479E+01  0.1522E+03
     15.387  0.8709E+01  0.1524E+03
     15.401  0.5896E+01  0.1525E+03
     15.415  0.4890E+01  0.1525E+03
     15.430  0.8515E+01  0.1526E+03
     15.444  0.8973E+01  0.1528E+03
     15.458  0.1336E+02  0.1530E+03
     15.473  0.1870E+02  0.1532E+03
     15.487  0.9413E+01  0.1534E+03
     15.501  0.1019E+02  0.1535E+03
     15.516  0.1222E+02  0.1537E+03
     15.530  0.7370E+01  0.1538E+03
     15.544  0.7136E+01  0.1539E+03
     15.559  0.1053E+02  0.1540E+03
     15.573  0.8495E+01  0.1542E+03
     15.587  0.3989E+01  0.1542E+03
     15.601  0.8112E+01  0.1543E+03
     15.616  0.8911E+01  0.1545E+03
     15.630  0.7388E+01  0.1546E+03
     15.644  0.8307E+01  0.1547E+03
     15.659  0.9117E+01  0.1548E+03
     15.673  0.8232E+01  0.1549E+03
     15.687  0.6283E+01  0.1550E+03
     15.702  0.5417E+01  0.1551E+03
     15.716  0.1007E+02  0.1553E+03
     15.730  0.8746E+01  0.1554E+03
     15.745  0.4422E+01  0.1554E+03
     15.759  0.6516E+01  0.1555E+03
     15.773  0.1092E+02  0.1557E+03
     15.788  0.1301E+02  0.1559E+03
     15.802  0.1455E+02  0.1561E+03
     15.816  0.1567E+02  0.1563E+03
     15.830  0.1248E+02  0.1565E+03
     15.845  0.1434E+02  0.1567E+03
     15.859  0.8134E+01  0.1568E+03
     15.873  0.7361E+01  0.1569E+03
     15.888  0.8379E+01  0.1570E+03
     15.902  0.1186E+02  0.1572E+03
     15.916  0.1213E+02  0.1574E+03
     15.931  0.1281E+02  0.1576E+03
     15.945  0.6315E+01  0.1577E+03
     15.959  0.4657E+01  0.1577E+03
     15.974  0.1023E+02  0.1579E+03
     15.988  0.1296E+02  0.1581E+03
     16.002  0.6112E+01  0.1581E+03
     16.017  0.6835E+01  0.1582E+03
     16.031  0.8959E+01  0.1584E+03
     16.045  0.1442E+02  0.1586E+03
     16.059  0.9143E+01  0.1587E+03
     16.074  0.1502E+02  0.1589E+03
     16.088  0.1079E+02  0.1591E+03
     16.102  0.5576E+01  0.1592E+03
     16.117  0.7584E+01  0.1593E+03
     16.131  0.1069E+02  0.1594E+03
     16.145  0.9608E+01  0.1596E+03
     16.160  0.7823E+01  0.1597E+03
     16.174  0.7361E+01  0.1598E+03
     16.188  0.1012E+02  0.1599E+03
     16.203  0.7032E+01  0.1600E+03
     16.217  0.5761E+01  0.1601E+03
     16.231  0.4901E+01  0.1602E+03
     16.246  0.6272E+01  0.1603E+03
     16.260  0.7307E+01  0.1604E+03
     16.274  0.5627E+01  0.1604E+03
     16.288  0.7878E+01  0.1606E+03
     16.303  0.1023E+02  0.1607E+03
     16.317  0.1090E+02  0.1609E+03
     16.331  0.1918E+02  0.1611E+03
     16.346  0.1719E+02  0.1614E+03
     16.360  0.1244E+02  0.1616E+03
     16.374  0.1467E+02  0.1618E+03
     16.389  0.1117E+02  0.1619E+03
     16.403  0.1721E+01  0.1619E+03
     16.417  0.2942E+01  0.1620E+03
     16.432  0.8871E+01  0.1621E+03
     16.446  0.6741E+01  0.1622E+03
     16.460  0.7238E+01  0.1623E+03
     16.475  0.8090E+01  0.1624E+03
     16.489  0.8004E+01  0.1625E+03
     16.503  0.1200E+02  0.1627E+03
     16.517  0.1369E+02  0.1629E+03
     16.532  0.1074E+02  0.1631E+03
     16.546  0.6421E+01  0.1632E+03
     16.560  0.5974E+01  0.1632E+03
     16.575  0.6392E+01  0.1633E+03
     16.589  0.5585E+01  0.1634E+03
     16.603  0.6987E+01  0.1635E+03
     16.618  0.6935E+01  0.1636E+03
     16.632  0.4881E+01  0.1637E+03
     16.646  0.9450E+01  0.1638E+03
     16.661  0.1340E+02  0.1640E+03
     16.675  0.1009E+02  0.1642E+03
     16.689  0.9734E+01  0.1643E+03
     16.704  0.1209E+02  0.1645E+03
     16.718  0.1177E+02  0.1646E+03
     16.732  0.1054E+02  0.1648E+03
     16.746  0.1218E+02  0.1650E+03
     16.761  0.7615E+01  0.1651E+03
     16.775  0.6529E+01  0.1652E+03
     16.789  0.6743E+01  0.1653E+03
     16.804  0.5086E+01  0.1653E+03
     16.818  0.1066E+02  0.1655E+03
     16.832  0.1126E+02  0.1657E+03
     16.847  0.1462E+02  0.1659E+03
     16.861  0.1304E+02  0.1660E+03
     16.875  0.9839E+01  0.1662E+03
     16.890  0.1093E+02  0.1663E+03
     16.904  0.6165E+01  0.1664E+03
     16.918  0.5404E+01  0.1665E+03
     16.932  0.1700E+01  0.1665E+03
     16.947  0.3033E+01  0.1666E+03
     16.961  0.5589E+01  0.1667E+03
     16.975  0.7318E+01  0.1668E+03
     16.990  0.5594E+01  0.1668E+03
     17.004  0.6469E+01  0.1669E+03
     17.018  0.9850E+01  0.1671E+03
     17.033  0.5685E+01  0.1672E+03
     17.047  0.5839E+01  0.1672E+03
     17.061  0.1042E+02  0.1674E+03
     17.076  0.9724E+01  0.1675E+03
     17.090  0.5531E+01  0.1676E+03
     17.104  0.4071E+01  0.1677E+03
     17.119  0.9628E+01  0.1678E+03
     17.133  0.8116E+01  0.1679E+03
     17.147  0.3820E+01  0.1680E+03
     17.161  0.4443E+01  0.1680E+03
     17.176  0.7873E+01  0.1682E+03
     17.190  0.4991E+01  0.1682E+03
     17.204  0.4020E+01  0.1683E+03
     17.219  0.7264E+01  0.1684E+03
     17.233  0.6114E+01  0.1685E+03
     17.247  0.9470E+01  0.1686E+03
     17.262  0.1733E+02  0.1689E+03
     17.276  0.9534E+01  0.1690E+03
     17.290  0.5343E+01  0.1691E+03
     17.305  0.1331E+02  0.1693E+03
     17.319  0.1657E+02  0.1695E+03
     17.333  0.1172E+02  0.1697E+03
     17.348  0.1188E+02  0.1698E+03
     17.362  0.1023E+02  0.1700E+03
     17.376  0.5420E+01  0.1701E+03
     17.390  0.6887E+01  0.1702E+03
     17.405  0.7858E+01  0.1703E+03
     17.419  0.8553E+01  0.1704E+03
     17.433  0.1340E+02  0.1706E+03
     17.448  0.1037E+02  0.1707E+03
     17.462  0.9881E+01  0.1709E+03
     17.476  0.7765E+01  0.1710E+03
     17.491  0.8246E+01  0.1711E+03
     17.505  0.6866E+01  0.1712E+03
     17.519  0.7459E+01  0.1713E+03
     17.534  0.4277E+01  0.1714E+03
     17.548  0.6661E+01  0.1715E+03
     17.562  0.4776E+01  0.1715E+03
     17.577  0.1108E+02  0.1717E+03
     17.591  0.1297E+02  0.1719E+03
     17.605  0.9395E+01  0.1720E+03
     17.619  0.1104E+02  0.1722E+03
     17.634  0.1282E+02  0.1724E+03
     17.648  0.1048E+02  0.1725E+03
     17.662  0.8464E+01  0.1726E+03
     17.677  0.3466E+01  0.1727E+03
     17.691  0.5477E+01  0.1728E+03
     17.705  0.1499E+02  0.1730E+03
     17.720  0.1823E+02  0.1732E+03
     17.734  0.1049E+02  0.1734E+03
     17.748  0.8323E+01  0.1735E+03
     17.763  0.1192E+02  0.1737E+03
     17.777  0.1238E+02  0.1738E+03
     17.791  0.9212E+01  0.1740E+03
     17.806  0.8458E+01  0.1741E+03
     17.820  0.6147E+01  0.1742E+03
     17.834  0.5826E+01  0.1743E+03
     17.848  0.2516E+01  0.1743E+03
     17.863  0.7685E+00  0.1743E+03
     17.877  0.3352E+01  0.1744E+03
     17.891  0.1066E+02  0.1745E+03
     17.906  0.1332E+02  0.1747E+03
     17.920  0.1168E+02  0.1749E+03
     17.934  0.1464E+02  0.1751E+03
     17.949  0.1193E+02  0.1753E+03
     17.963  0.8304E+01  0.1754E+03
     17.977  0.5710E+01  0.1755E+03
     17.992  0.6252E+01  0.1755E+03
     18.006  0.6726E+01  0.1756E+03
     18.020  0.8648E+01  0.1758E+03
     18.035  0.8630E+01  0.1759E+03
     18.049  0.9634E+01  0.1760E+03
     18.063  0.1404E+02  0.1762E+03
     18.077  0.1942E+02  0.1765E+03
     18.092  0.2109E+02  0.1768E+03
     18.106  0.1446E+02  0.1770E+03
     18.120  0.9680E+01  0.1772E+03
     18.135  0.8621E+01  0.1773E+03
     18.149  0.9764E+01  0.1774E+03
     18.163  0.8774E+01  0.1775E+03
     18.178  0.1171E+02  0.1777E+03
     18.192  0.1325E+02  0.1779E+03
     18.206  0.1057E+02  0.1780E+03
     18.221  0.9779E+01  0.1782E+03
     18.235  0.8952E+01  0.1783E+03
     18.249  0.1114E+02  0.1785E+03
     18.264  0.4953E+01  0.1785E+03
     18.278  0.4968E+01  0.1786E+03
     18.292  0.8532E+01  0.1787E+03
     18.306  0.9521E+01  0.1789E+03
     18.321  0.1890E+02  0.1791E+03
     18.335  0.1639E+02  0.1794E+03
     18.349  0.1029E+02  0.1795E+03
     18.364  0.1113E+02  0.1797E+03
     18.378  0.6597E+01  0.1798E+03
     18.392  0.9566E+01  0.1799E+03
     18.407  0.1079E+02  0.1801E+03
     18.421  0.1103E+02  0.1802E+03
     18.435  0.1075E+02  0.1804E+03
     18.450  0.1007E+02  0.1805E+03
     18.464  0.1074E+02  0.1807E+03
     18.478  0.1552E+02  0.1809E+03
     18.493  0.1371E+02  0.1811E+03
     18.507  0.1114E+02  0.1813E+03
     18.521  0.1361E+02  0.1815E+03
     18.535  0.7402E+01  0.1816E+03
     18.550  0.8812E+01  0.1817E+03
     18.564  0.1217E+02  0.1819E+03
     18.578  0.7773E+01  0.1820E+03
     18.593  0.6271E+01  0.1821E+03
     18.607  0.9377E+01  0.1822E+03
     18.621  0.5074E+01  0.1823E+03
     18.636  0.4098E+01  0.1823E+03
     18.650  0.6129E+01  0.1824E+03
     18.664  0.9209E+01  0.1825E+03
     18.679  0.6524E+01  0.1826E+03
     18.693  0.9643E+01  0.1828E+03
     18.707  0.1540E+02  0.1830E+03
     18.722  0.1157E+02  0.1832E+03
     18.736  0.1681E+02  0.1834E+03
     18.750  0.1065E+02  0.1836E+03
     18.764  0.6454E+01  0.1837E+03
     18.779  0.8154E+01  0.1838E+03
     18.793  0.1029E+02  0.1839E+03
     18.807  0.8656E+01  0.1840E+03
     18.822  0.7018E+01  0.1841E+03
     18.836  0.8602E+01  0.1843E+03
     18.850  0.5690E+01  0.1843E+03
     18.865  0.6092E+01  0.1844E+03
     18.879  0.4686E+01  0.1845E+03
     18.893  0.4527E+01  0.1846E+03
     18.908  0.8864E+01  0.1847E+03
     18.922  0.1330E+02  0.1849E+03
     18.936  0.9766E+01  0.1850E+03
     18.951  0.5215E+01  0.1851E+03
     18.965  0.8321E+01  0.1852E+03
     18.979  0.1557E+02  0.1854E+03
     18.993  0.1380E+02  0.1856E+03
     19.008  0.1238E+02  0.1858E+03
     19.022  0.1024E+02  0.1860E+03
     19.036  0.9074E+01  0.1861E+03
     19.051  0.6880E+01  0.1862E+03
     19.065  0.9890E+01  0.1863E+03
     19.079  0.7258E+01  0.1864E+03
     19.094  0.7879E+01  0.1865E+03
     19.108  0.8426E+01  0.1867E+03
     19.122  0.4306E+01  0.1867E+03
     19.137  0.8301E+01  0.1868E+03
     19.151  0.8708E+01  0.1870E+03
     19.165  0.2977E+01  0.1870E+03
     19.180  0.5076E+01  0.1871E+03
     19.194  0.6847E+01  0.1872E+03
     19.208  0.8354E+01  0.1873E+03
     19.222  0.7869E+01  0.1874E+03
     19.237  0.7182E+01  0.1875E+03
     19.251  0.9089E+01  0.1876E+03
     19.265  0.7765E+01  0.1878E+03
     19.280  0.8772E+01  0.1879E+03
     19.294  0.1328E+02  0.1881E+03
     19.308  0.1417E+02  0.1883E+03
     19.323  0.1372E+02  0.1885E+03
     19.337  0.1025E+02  0.1886E+03
     19.351  0.8920E+01  0.1887E+03
     19.366  0.1283E+02  0.1889E+03
     19.380  0.1172E+02  0.1891E+03
     19.394  0.6279E+01  0.1892E+03
     19.409  0.1081E+02  0.1893E+03
     19.423  0.8196E+01  0.1895E+03
     19.437  0.5861E+01  0.1895E+03
     19.451  0.1041E+02  0.1897E+03
     19.466  0.1441E+02  0.1899E+03
     19.480  0.2108E+02  0.1902E+03
     19.494  0.1779E+02  0.1905E+03
     19.509  0.1558E+02  0.1907E+03
     19.523  0.1761E+02  0.1909E+03
     19.537  0.1260E+02  0.1911E+03
     19.552  0.1006E+02  0.1913E+03
     19.566  0.1138E+02  0.1914E+03
     19.580  0.8259E+01  0.1915E+03
     19.595  0.7340E+01  0.1916E+03
     19.609  0.1037E+02  0.1918E+03
     19.623  0.1382E+02  0.1920E+03
     19.638  0.1633E+02  0.1922E+03
     19.652  0.9704E+01  0.1924E+03
     19.666  0.7555E+01  0.1925E+03
     19.680  0.1250E+02  0.1926E+03
     19.695  0.6143E+01  0.1927E+03
     19.709  0.5247E+01  0.1928E+03
     19.723  0.7165E+01  0.1929E+03
     19.738  0.1032E+02  0.1931E+03
     19.752  0.1003E+02  0.1932E+03
     19.766  0.1071E+02  0.1934E+03
     19.781  0.1457E+02  0.1936E+03
     19.795  0.1155E+02  0.1937E+03
     19.809  0.1212E+02  0.1939E+03
     19.824  0.8998E+01  0.1940E+03
     19.838  0.9676E+01  0.1942E+03
     19.852  0.1054E+02  0.1943E+03
     19.867  0.1362E+02  0.1945E+03
     19.881  0.1207E+02  0.1947E+03
     19.895  0.9428E+01  0.1948E+03
     19.909  0.8040E+01  0.1949E+03
     19.924  0.9215E+01  0.1951E+03
     19.938  0.1534E+02  0.1953E+03
     19.952  0.1923E+02  0.1956E+03
     19.967  0.2309E+02  0.1959E+03
     19.981  0.1403E+02  0.1961E+03
     19.995  0.7859E+01  0.1962E+03
     20.010  0.8779E+01  0.1963E+03
     20.024  0.7982E+01  0.1965E+03
     20.038  0.1018E+02  0.1966E+03
     20.053  0.6903E+01  0.1967E+03
     20.067  0.5455E+01  0.1968E+03
     20.081  0.5837E+01  0.1969E+03
     20.096  0.6136E+01  0.1969E+03
     20.110  0.1268E+02  0.1971E+03
     20.124  0.1281E+02  0.1973E+03
     20.138  0.1225E+02  0.1975E+03
     20.153  0.8834E+01  0.1976E+03
     20.167  0.6268E+01  0.1977E+03
     20.181  0.8914E+01  0.1978E+03
     20.196  0.1178E+02  0.1980E+03
     20.210  0.9263E+01  0.1981E+03
     20.224  0.8587E+01  0.1983E+03
     20.239  0.9725E+01  0.1984E+03
     20.253  0.7280E+01  0.1985E+03
     20.267  0.7815E+01  0.1986E+03
     20.282  0.7337E+01  0.1987E+03
     20.296  0.6993E+01  0.1988E+03
     20.310  0.7251E+01  0.1989E+03
     20.325  0.1005E+02  0.1991E+03
     20.339  0.1471E+02  0.1993E+03
     20.353  0.1101E+02  0.1994E+03
     20.367  0.7113E+01  0.1995E+03
     20.382  0.6560E+01  0.1996E+03
     20.396  0.4357E+01  0.1997E+03
     20.410  0.4999E+01  0.1998E+03
     20.425  0.7563E+01  0.1999E+03
     20.439  0.5784E+01  0.2000E+03
     20.453  0.7604E+01  0.2001E+03
     20.468  0.9262E+01  0.2002E+03
     20.482  0.1029E+02  0.2003E+03
     20.496  0.1166E+02  0.2005E+03
     20.511  0.9893E+01  0.2006E+03
     20.525  0.9580E+01  0.2008E+03
     20.539  0.1056E+02  0.2009E+03
     20.554  0.1013E+02  0.2011E+03
     20.568  0.1012E+02  0.2012E+03
     20.582  0.9134E+01  0.2014E+03
     20.596  0.1152E+02  0.2015E+03
     20.611  0.9138E+01  0.2017E+03
     20.625  0.1153E+02  0.2018E+03
     20.639  0.1256E+02  0.2020E+03
     20.654  0.1511E+02  0.2022E+03
     20.668  0.1291E+02  0.2024E+03
     20.682  0.8137E+01  0.2025E+03
     20.697  0.7255E+01  0.2026E+03
     20.711  0.8291E+01  0.2027E+03
     20.725  0.8748E+01  0.2029E+03
     20.740  0.4896E+01  0.2029E+03
     20.754  0.6091E+01  0.2030E+03
     20.768  0.9081E+01  0.2031E+03
     20.783  0.1336E+02  0.2033E+03
     20.797  0.1491E+02  0.2036E+03
     20.811  0.8981E+01  0.2037E+03
     20.825  0.7417E+01  0.2038E+03
     20.840  0.1022E+02  0.2039E+03
     20.854  0.1075E+02  0.2041E+03
     20.868  0.1108E+02  0.2042E+03
     20.883  0.9439E+01  0.2044E+03
     20.897  0.6967E+01  0.2045E+03
     20.911  0.4917E+01  0.2046E+03
     20.926  0.8369E+01  0.2047E+03
     20.940  0.8889E+01  0.2048E+03
     20.954  0.6457E+01  0.2049E+03
     20.969  0.3910E+01  0.2049E+03
     20.983  0.5001E+01  0.2050E+03
     20.997  0.9290E+01  0.2052E+03
     21.012  0.1418E+02  0.2054E+03
     21.026  0.1333E+02  0.2055E+03
     21.040  0.1065E+02  0.2057E+03
     21.054  0.1240E+02  0.2059E+03
     21.069  0.1215E+02  0.2060E+03
     21.083  0.1080E+02  0.2062E+03
     21.097  0.9167E+01  0.2063E+03
     21.112  0.8869E+01  0.2065E+03
     21.126  0.6969E+01  0.2066E+03
     21.140  0.9074E+01  0.2067E+03
     21.155  0.7096E+01  0.2068E+03
     21.169  0.9869E+01  0.2069E+03
     21.183  0.1539E+02  0.2072E+03
     21.198  0.1501E+02  0.2074E+03
     21.212  0.1258E+02  0.2076E+03
     21.226  0.1036E+02  0.2077E+03
     21.241  0.9856E+01  0.2078E+03
     21.255  0.1232E+02  0.2080E+03
     21.269  0.1312E+02  0.2082E+03
     21.283  0.1096E+02  0.2084E+03
     21.298  0.8686E+01  0.2085E+03
     21.312  0.7637E+01  0.2086E+03
     21.326  0.7993E+01  0.2087E+03
     21.341  0.1418E+02  0.2089E+03
     21.355  0.1473E+02  0.2091E+03
     21.369  0.1322E+02  0.2093E+03
     21.384  0.1030E+02  0.2095E+03
     21.398  0.1018E+02  0.2096E+03
     21.412  0.1020E+02  0.2098E+03
     21.427  0.1130E+02  0.2099E+03
     21.441  0.1064E+02  0.2101E+03
     21.455  0.1092E+02  0.2102E+03
     21.470  0.1018E+02  0.2104E+03
     21.484  0.1014E+02  0.2105E+03
     21.498  0.7913E+01  0.2106E+03
     21.512  0.1100E+02  0.2108E+03
     21.527  0.1023E+02  0.2109E+03
     21.541  0.7905E+01  0.2110E+03
     21.555  0.1205E+02  0.2112E+03
     21.570  0.1183E+02  0.2114E+03
     21.584  0.8527E+01  0.2115E+03
     21.598  0.6761E+01  0.2116E+03
     21.613  0.9167E+01  0.2117E+03
     21.627  0.1242E+02  0.2119E+03
     21.641  0.1406E+02  0.2121E+03
     21.656  0.1157E+02  0.2123E+03
     21.670  0.1107E+02  0.2124E+03
     21.684  0.8921E+01  0.2126E+03
     21.699  0.9934E+01  0.2127E+03
     21.713  0.1092E+02  0.2129E+03
     21.727  0.8286E+01  0.2130E+03
     21.741  0.6742E+01  0.2131E+03
     21.756  0.8022E+01  0.2132E+03
     21.770  0.7891E+01  0.2133E+03
     21.784  0.7409E+01  0.2134E+03
     21.799  0.7727E+01  0.2135E+03
     21.813  0.7851E+01  0.2136E+03
     21.827  0.6889E+01  0.2137E+03
     21.842  0.1037E+02  0.2139E+03
     21.856  0.1237E+02  0.2141E+03
     21.870  0.9830E+01  0.2142E+03
     21.885  0.5695E+01  0.2143E+03
     21.899  0.7519E+01  0.2144E+03
     21.913  0.8207E+01  0.2145E+03
     21.928  0.1187E+02  0.2147E+03
     21.942  0.7970E+01  0.2148E+03
     21.956  0.6443E+01  0.2149E+03
     21.970  0.1321E+02  0.2151E+03
     21.985  0.1422E+02  0.2153E+03
     21.999  0.9748E+01  0.2154E+03
     22.013  0.8494E+01  0.2155E+03
     22.028  0.1112E+02  0.2157E+03
     22.042  0.1008E+02  0.2158E+03
     22.056  0.7020E+01  0.2159E+03
     22.071  0.6480E+01  0.2160E+03
     22.085  0.7245E+01  0.2161E+03
     22.099  0.9380E+01  0.2163E+03
     22.114  0.8642E+01  0.2164E+03
     22.128  0.1074E+02  0.2165E+03
     22.142  0.1062E+02  0.2167E+03
     22.157  0.1050E+02  0.2169E+03
     22.171  0.7999E+01  0.2170E+03
     22.185  0.7215E+01  0.2171E+03
     22.199  0.7452E+01  0.2172E+03
     22.214  0.7195E+01  0.2173E+03
     22.228  0.1170E+02  0.2174E+03
     22.242  0.1127E+02  0.2176E+03
     22.257  0.8663E+01  0.2177E+03
     22.271  0.8846E+01  0.2179E+03
     22.285  0.8882E+01  0.2180E+03
     22.300  0.9202E+01  0.2181E+03
     22.314  0.1082E+02  0.2183E+03
     22.328  0.1209E+02  0.2184E+03
     22.343  0.9840E+01  0.2186E+03
     22.357  0.8372E+01  0.2187E+03
     22.371  0.1077E+02  0.2189E+03
     22.385  0.9535E+01  0.2190E+03
     22.400  0.9847E+01  0.2191E+03
     22.414  0.6638E+01  0.2192E+03
     22.428  0.6151E+01  0.2193E+03
     22.443  0.9812E+01  0.2195E+03
     22.457  0.8819E+01  0.2196E+03
     22.471  0.1065E+02  0.2197E+03
     22.486  0.9960E+01  0.2199E+03
     22.500  0.8903E+01  0.2200E+03
     22.514  0.8401E+01  0.2201E+03
     22.529  0.7021E+01  0.2202E+03
     22.543  0.7534E+01  0.2203E+03
     22.557  0.8590E+01  0.2205E+03
     22.572  0.1169E+02  0.2206E+03
     22.586  0.1131E+02  0.2208E+03
     22.600  0.8989E+01  0.2209E+03
     22.614  0.7782E+01  0.2210E+03
     22.629  0.7799E+01  0.2211E+03
     22.643  0.7991E+01  0.2213E+03
     22.657  0.1006E+02  0.2214E+03
     22.672  0.1130E+02  0.2216E+03
     22.686  0.8071E+01  0.2217E+03
     22.700  0.8239E+01  0.2218E+03
     22.715  0.8763E+01  0.2219E+03
     22.729  0.9015E+01  0.2220E+03
     22.743  0.8733E+01  0.2222E+03
     22.758  0.8518E+01  0.2223E+03
     22.772  0.6850E+01  0.2224E+03
     22.786  0.7998E+01  0.2225E+03
     22.801  0.8163E+01  0.2226E+03
     22.815  0.6629E+01  0.2227E+03
     22.829  0.9057E+01  0.2228E+03
     22.843  0.8320E+01  0.2230E+03
     22.858  0.8895E+01  0.2231E+03
     22.872  0.9965E+01  0.2232E+03
     22.886  0.1217E+02  0.2234E+03
     22.901  0.9179E+01  0.2235E+03
     22.915  0.1115E+02  0.2237E+03
     22.929  0.7865E+01  0.2238E+03
     22.944  0.9057E+01  0.2239E+03
     22.958  0.1351E+02  0.2241E+03
     22.972  0.8352E+01  0.2243E+03
     22.987  0.8099E+01  0.2244E+03
     23.001  0.9604E+01  0.2245E+03
     23.015  0.9364E+01  0.2246E+03
     23.030  0.8225E+01  0.2248E+03
     23.044  0.6454E+01  0.2249E+03
     23.058  0.5523E+01  0.2249E+03
     23.072  0.7623E+01  0.2250E+03
     23.087  0.8587E+01  0.2252E+03
     23.101  0.1254E+02  0.2253E+03
     23.115  0.1197E+02  0.2255E+03
     23.130  0.1099E+02  0.2257E+03
     23.144  0.9236E+01  0.2258E+03
     23.158  0.1130E+02  0.2260E+03
     23.173  0.1034E+02  0.2261E+03
     23.187  0.9266E+01  0.2262E+03
     23.201  0.9610E+01  0.2264E+03
     23.216  0.7627E+01  0.2265E+03
     23.230  0.1001E+02  0.2266E+03
     23.244  0.1185E+02  0.2268E+03
     23.259  0.1168E+02  0.2270E+03
     23.273  0.1222E+02  0.2272E+03
     23.287  0.8029E+01  0.2273E+03
     23.301  0.7368E+01  0.2274E+03
     23.316  0.8301E+01  0.2275E+03
     23.330  0.8091E+01  0.2276E+03
     23.344  0.7005E+01  0.2277E+03
     23.359  0.6695E+01  0.2278E+03
     23.373  0.7988E+01  0.2279E+03
     23.387  0.8226E+01  0.2280E+03
     23.402  0.9004E+01  0.2282E+03
     23.416  0.9444E+01  0.2283E+03
     23.430  0.1030E+02  0.2284E+03
     23.445  0.1052E+02  0.2286E+03
     23.459  0.1094E+02  0.2288E+03
     23.473  0.1145E+02  0.2289E+03
     23.488  0.1391E+02  0.2291E+03
     23.502  0.1170E+02  0.2293E+03
     23.516  0.1089E+02  0.2294E+03
     23.530  0.8143E+01  0.2296E+03
     23.545  0.5778E+01  0.2296E+03
     23.559  0.7022E+01  0.2297E+03
     23.573  0.9305E+01  0.2299E+03
     23.588  0.8931E+01  0.2300E+03
     23.602  0.7136E+01  0.2301E+03
     23.616  0.6598E+01  0.2302E+03
     23.631  0.7582E+01  0.2303E+03
     23.645  0.8184E+01  0.2304E+03
     23.659  0.1179E+02  0.2306E+03
     23.674  0.1126E+02  0.2308E+03
     23.688  0.9730E+01  0.2309E+03
     23.702  0.6481E+01  0.2310E+03
     23.717  0.5821E+01  0.2311E+03
     23.731  0.6755E+01  0.2312E+03
     23.745  0.6693E+01  0.2313E+03
     23.759  0.7108E+01  0.2314E+03
     23.774  0.6438E+01  0.2315E+03
     23.788  0.5417E+01  0.2315E+03
     23.802  0.5510E+01  0.2316E+03
     23.817  0.7239E+01  0.2317E+03
     23.831  0.9831E+01  0.2319E+03
     23.845  0.8543E+01  0.2320E+03
     23.860  0.7176E+01  0.2321E+03
     23.874  0.7581E+01  0.2322E+03
     23.888  0.1145E+02  0.2324E+03
     23.903  0.1256E+02  0.2325E+03
     23.917  0.8704E+01  0.2327E+03
     23.931  0.7974E+01  0.2328E+03
     23.946  0.8091E+01  0.2329E+03
     23.960  0.9351E+01  0.2330E+03
     23.974  0.5397E+01  0.2331E+03
     23.988  0.6003E+01  0.2332E+03
     24.003  0.6334E+01  0.2333E+03
     24.017  0.8035E+01  0.2334E+03
     24.031  0.9416E+01  0.2335E+03
     24.046  0.1173E+02  0.2337E+03
     24.060  0.1145E+02  0.2339E+03
     24.074  0.9093E+01  0.2340E+03
     24.089  0.1003E+02  0.2341E+03
     24.103  0.8597E+01  0.2343E+03
     24.117  0.1057E+02  0.2344E+03
     24.132  0.1255E+02  0.2346E+03
     24.146  0.1045E+02  0.2347E+03
     24.160  0.8348E+01  0.2349E+03
     24.175  0.9356E+01  0.2350E+03
     24.189  0.1000E+02  0.2351E+03
     24.203  0.1192E+02  0.2353E+03
     24.217  0.7661E+01  0.2354E+03
     24.232  0.5244E+01  0.2355E+03
     24.246  0.6552E+01  0.2356E+03
     24.260  0.8806E+01  0.2357E+03
     24.275  0.9874E+01  0.2358E+03
     24.289  0.8231E+01  0.2360E+03
     24.303  0.7188E+01  0.2361E+03
     24.318  0.8208E+01  0.2362E+03
     24.332  0.1050E+02  0.2363E+03
     24.346  0.8284E+01  0.2365E+03
     24.361  0.8166E+01  0.2366E+03
     24.375  0.8472E+01  0.2367E+03
     24.389  0.1101E+02  0.2368E+03
     24.404  0.8483E+01  0.2370E+03
     24.418  0.7389E+01  0.2371E+03
     24.432  0.1023E+02  0.2372E+03
     24.446  0.1085E+02  0.2374E+03
     24.461  0.8286E+01  0.2375E+03
     24.475  0.9068E+01  0.2376E+03
     24.489  0.1154E+02  0.2378E+03
     24.504  0.1037E+02  0.2379E+03
     24.518  0.9604E+01  0.2381E+03
     24.532  0.8381E+01  0.2382E+03
     24.547  0.6777E+01  0.2383E+03
     24.561  0.7963E+01  0.2384E+03
     24.575  0.7263E+01  0.2385E+03
     24.590  0.8423E+01  0.2386E+03
     24.604  0.8167E+01  0.2387E+03
     24.618  0.9244E+01  0.2389E+03
     24.633  0.9072E+01  0.2390E+03
     24.647  0.7369E+01  0.2391E+03
     24.661  0.5332E+01  0.2392E+03
     24.675  0.8116E+01  0.2393E+03
     24.690  0.1152E+02  0.2395E+03
     24.704  0.9693E+01  0.2396E+03
     24.718  0.7350E+01  0.2397E+03
     24.733  0.8351E+01  0.2398E+03
     24.747  0.8395E+01  0.2400E+03
     24.761  0.8016E+01  0.2401E+03
     24.776  0.7676E+01  0.2402E+03
     24.790  0.6236E+01  0.2403E+03
     24.804  0.8546E+01  0.2404E+03
     24.819  0.7922E+01  0.2405E+03
     24.833  0.8092E+01  0.2406E+03
     24.847  0.9538E+01  0.2408E+03
     24.862  0.9044E+01  0.2409E+03
     24.876  0.7446E+01  0.2410E+03
     24.890  0.5083E+01  0.2411E+03
     24.904  0.1008E+02  0.2412E+03
     24.919  0.1067E+02  0.2414E+03
     24.933  0.5337E+01  0.2414E+03
     24.947  0.5922E+01  0.2415E+03
     24.962  0.9722E+01  0.2417E+03
     24.976  0.1077E+02  0.2418E+03
     24.990  0.8559E+01  0.2419E+03
     25.005  0.4657E+01  0.2420E+03
     25.019  0.8036E+01  0.2421E+03
     25.033  0.9420E+01  0.2423E+03
     25.048  0.6158E+01  0.2423E+03
     25.062  0.4696E+01  0.2424E+03
     25.076  0.7748E+01  0.2425E+03
     25.091  0.1017E+02  0.2427E+03
     25.105  0.1049E+02  0.2428E+03
     25.119  0.8485E+01  0.2429E+03
     25.133  0.7978E+01  0.2431E+03
     25.148  0.7362E+01  0.2432E+03
     25.162  0.5798E+01  0.2432E+03
     25.176  0.6304E+01  0.2433E+03
     25.191  0.5380E+01  0.2434E+03
     25.205  0.4556E+01  0.2435E+03
     25.219  0.5840E+01  0.2436E+03
     25.234  0.5483E+01  0.2436E+03
     25.248  0.7704E+01  0.2437E+03
     25.262  0.9258E+01  0.2439E+03
     25.277  0.1067E+02  0.2440E+03
     25.291  0.9869E+01  0.2442E+03
     25.305  0.6868E+01  0.2443E+03
     25.320  0.3869E+01  0.2443E+03
     25.334  0.6764E+01  0.2444E+03
     25.348  0.8835E+01  0.2446E+03
     25.362  0.8866E+01  0.2447E+03
     25.377  0.7097E+01  0.2448E+03
     25.391  0.6639E+01  0.2449E+03
     25.405  0.7259E+01  0.2450E+03
     25.420  0.6655E+01  0.2451E+03
     25.434  0.1067E+02  0.2452E+03
     25.448  0.1089E+02  0.2454E+03
     25.463  0.7747E+01  0.2455E+03
     25.477  0.5897E+01  0.2456E+03
     25.491  0.7663E+01  0.2457E+03
     25.506  0.9390E+01  0.2458E+03
     25.520  0.8906E+01  0.2459E+03
     25.534  0.6397E+01  0.2460E+03
     25.549  0.6851E+01  0.2461E+03
     25.563  0.7558E+01  0.2462E+03
     25.577  0.6480E+01  0.2463E+03
     25.591  0.6847E+01  0.2464E+03
     25.606  0.7407E+01  0.2465E+03
     25.620  0.6048E+01  0.2466E+03
     25.634  0.5028E+01  0.2467E+03
     25.649  0.5513E+01  0.2468E+03
     25.663  0.6317E+01  0.2469E+03
     25.677  0.6837E+01  0.2470E+03
     25.692  0.6805E+01  0.2471E+03
     25.706  0.6379E+01  0.2472E+03
     25.720  0.7765E+01  0.2473E+03
     25.735  0.6892E+01  0.2474E+03
     25.749  0.6938E+01  0.2475E+03
     25.763  0.7575E+01  0.2476E+03
     25.778  0.8887E+01  0.2477E+03
     25.792  0.7742E+01  0.2478E+03
     25.806  0.5974E+01  0.2479E+03
     25.820  0.3899E+01  0.2480E+03
     25.835  0.5134E+01  0.2480E+03
     25.849  0.5669E+01  0.2481E+03
     25.863  0.7846E+01  0.2482E+03
     25.878  0.8001E+01  0.2483E+03
     25.892  0.7606E+01  0.2484E+03
     25.906  0.6890E+01  0.2485E+03
     25.921  0.5500E+01  0.2486E+03
     25.935  0.4803E+01  0.2487E+03
     25.949  0.4433E+01  0.2488E+03
     25.964  0.8024E+01  0.2489E+03
     25.978  0.6720E+01  0.2490E+03
     25.992  0.7343E+01  0.2491E+03
     26.007  0.6421E+01  0.2492E+03
     26.021  0.3619E+01  0.2492E+03
     26.035  0.4659E+01  0.2493E+03
     26.049  0.4485E+01  0.2493E+03
     26.064  0.3138E+01  0.2494E+03
     26.078  0.7002E+01  0.2495E+03
     26.092  0.9523E+01  0.2496E+03
     26.107  0.7000E+01  0.2497E+03
     26.121  0.5533E+01  0.2498E+03
     26.135  0.5315E+01  0.2499E+03
     26.150  0.4195E+01  0.2499E+03
     26.164  0.4553E+01  0.2500E+03
     26.178  0.5875E+01  0.2501E+03
     26.193  0.5101E+01  0.2502E+03
     26.207  0.5150E+01  0.2502E+03
     26.221  0.4880E+01  0.2503E+03
     26.236  0.4504E+01  0.2504E+03
     26.250  0.7288E+01  0.2505E+03
     26.264  0.6007E+01  0.2506E+03
     26.278  0.4574E+01  0.2506E+03
     26.293  0.7603E+01  0.2507E+03
     26.307  0.6113E+01  0.2508E+03
     26.321  0.6345E+01  0.2509E+03
     26.336  0.6987E+01  0.2510E+03
     26.350  0.5214E+01  0.2511E+03
     26.364  0.2594E+01  0.2511E+03
     26.379  0.3674E+01  0.2512E+03
     26.393  0.4916E+01  0.2513E+03
     26.407  0.5342E+01  0.2513E+03
     26.422  0.4620E+01  0.2514E+03
     26.436  0.3132E+01  0.2514E+03
     26.450  0.3436E+01  0.2515E+03
     26.465  0.6905E+01  0.2516E+03
     26.479  0.6276E+01  0.2517E+03
     26.493  0.7554E+01  0.2518E+03
     26.507  0.4817E+01  0.2519E+03
     26.522  0.6552E+01  0.2519E+03
     26.536  0.3992E+01  0.2520E+03
     26.550  0.3900E+01  0.2521E+03
     26.565  0.2838E+01  0.2521E+03
     26.579  0.2973E+01  0.2521E+03
     26.593  0.4184E+01  0.2522E+03
     26.608  0.6445E+01  0.2523E+03
     26.622  0.3740E+01  0.2523E+03
     26.636  0.2621E+01  0.2524E+03
     26.651  0.1857E+01  0.2524E+03
     26.665  0.4126E+01  0.2525E+03
     26.679  0.5669E+01  0.2526E+03
     26.694  0.4651E+01  0.2526E+03
     26.708  0.5313E+01  0.2527E+03
     26.722  0.4941E+01  0.2528E+03
     26.736  0.4208E+01  0.2528E+03
     26.751  0.3094E+01  0.2529E+03
     26.765  0.1358E+01  0.2529E+03
     26.779  0.3129E+01  0.2529E+03
     26.794  0.6124E+01  0.2530E+03
     26.808  0.3414E+01  0.2531E+03
     26.822  0.1634E+01  0.2531E+03
     26.837  0.3733E+01  0.2531E+03
     26.851  0.3763E+01  0.2532E+03
     26.865  0.3568E+01  0.2533E+03
     26.880  0.1411E+01  0.2533E+03
     26.894  0.2682E+01  0.2533E+03
     26.908  0.3130E+01  0.2534E+03
     26.923  0.1421E+01  0.2534E+03
     26.937  0.1939E+01  0.2534E+03
     26.951  0.3729E+01  0.2535E+03
     26.965  0.4324E+01  0.2535E+03
     26.980  0.4485E+01  0.2536E+03
     26.994  0.3733E+01  0.2536E+03
     27.008  0.3604E+01  0.2537E+03
     27.023  0.4674E+01  0.2538E+03
     27.037  0.3370E+01  0.2538E+03
     27.051  0.1310E+01  0.2538E+03
     27.066  0.2265E+01  0.2539E+03
     27.080  0.2719E+01  0.2539E+03
     27.094  0.1445E+01  0.2539E+03
     27.109  0.5604E+00  0.2539E+03
     27.123  0.1923E+01  0.2540E+03
     27.137  0.4424E+01  0.2540E+03
     27.152  0.4988E+01  0.2541E+03
     27.166  0.3281E+01  0.2541E+03
     27.180  0.6588E+01  0.2542E+03
     27.194  0.6492E+01  0.2543E+03
     27.209  0.2635E+01  0.2544E+03
     27.223  0.2109E+01  0.2544E+03
     27.237  0.2556E+01  0.2544E+03
     27.252  0.1739E+01  0.2544E+03
     27.266  0.2820E+01  0.2545E+03
     27.280  0.2656E+01  0.2545E+03
     27.295  0.1724E+01  0.2546E+03
     27.309  0.3108E+01  0.2546E+03
     27.323  0.5733E+01  0.2547E+03
     27.338  0.3034E+01  0.2547E+03
     27.352  0.9157E+00  0.2547E+03
     27.366  0.1467E+01  0.2548E+03
     27.381  0.1565E+01  0.2548E+03
     27.395  0.1760E+01  0.2548E+03
     27.409  0.1350E+01  0.2548E+03
     27.423  0.6035E+00  0.2548E+03
     27.438  0.1534E+01  0.2549E+03
     27.452  0.1643E+01  0.2549E+03
     27.466  0.1406E+01  0.2549E+03
     27.481  0.2151E+01  0.2549E+03
     27.495  0.4508E+00  0.2549E+03
     27.509  0.3942E+00  0.2549E+03
     27.524  0.7864E+00  0.2550E+03
     27.538  0.1366E+01  0.2550E+03
     27.552  0.2427E+01  0.2550E+03
     27.567  0.2011E+01  0.2550E+03
     27.581  0.1156E+01  0.2551E+03
     27.595  0.8726E+00  0.2551E+03
     27.610  0.1102E+01  0.2551E+03
     27.624  0.1038E+01  0.2551E+03
     27.638  0.8985E+00  0.2551E+03
     27.652  0.8626E+00  0.2551E+03
     27.667  0.1751E+01  0.2551E+03
     27.681  0.7484E+00  0.2552E+03
     27.695  0.1400E+01  0.2552E+03
     27.710  0.3688E+01  0.2552E+03
     27.724  0.3061E+01  0.2553E+03
     27.738  0.2732E+01  0.2553E+03
     27.753  0.1074E+01  0.2553E+03
     27.767  0.7510E+00  0.2553E+03
     27.781  0.2058E+01  0.2554E+03
     27.796  0.4373E+01  0.2554E+03
     27.810  0.3144E+01  0.2555E+03
     27.824  0.8815E+00  0.2555E+03
     27.838  0.5473E+00  0.2555E+03
     27.853  0.1892E+00  0.2555E+03
     27.867  0.6839E+00  0.2555E+03
     27.881  0.6244E+00  0.2555E+03
     27.896  0.1040E+01  0.2555E+03
     27.910  0.1098E+01  0.2555E+03
     27.924  0.1190E+01  0.2556E+03
     27.939  0.7411E+00  0.2556E+03
     27.953  0.1460E+01  0.2556E+03
     27.967  0.7242E+00  0.2556E+03
     27.982  0.1954E-01  0.2556E+03
     27.996  0.2512E-01  0.2556E+03
     28.010  0.2917E+00  0.2556E+03
     28.025  0.2191E+00  0.2556E+03
     28.039  0.8815E+00  0.2556E+03
     28.053  0.1089E+01  0.2556E+03
     28.067  0.7886E+00  0.2557E+03
     28.082  0.8020E+00  0.2557E+03
     28.096  0.1095E+01  0.2557E+03
     28.110  0.1236E+01  0.2557E+03
     28.125  0.1330E+01  0.2557E+03
     28.139  0.8297E+00  0.2557E+03
     28.153  0.5600E+00  0.2557E+03
     28.168  0.1535E+00  0.2557E+03
     28.182  0.1391E+01  0.2558E+03
     28.196  0.1316E+01  0.2558E+03
     28.211  0.7925E-01  0.2558E+03
     28.225  0.1548E-03  0.2558E+03
     28.239  0.3880E-07  0.2558E+03
     28.254  0.3738E-03  0.2558E+03
     28.268  0.9897E-01  0.2558E+03
     28.282  0.8943E+00  0.2558E+03
     28.296  0.4849E+00  0.2558E+03
     28.311  0.5594E+00  0.2558E+03
     28.325  0.3763E+00  0.2558E+03
     28.339  0.4104E+00  0.2558E+03
     28.354  0.1233E+01  0.2558E+03
     28.368  0.2992E+00  0.2558E+03
     28.382  0.5151E+00  0.2558E+03
     28.397  0.1253E+01  0.2559E+03
     28.411  0.3339E+00  0.2559E+03
     28.425  0.2868E+00  0.2559E+03
     28.440  0.2302E-01  0.2559E+03
     28.454  0.1015E-03  0.2559E+03
     28.468  0.2983E-01  0.2559E+03
     28.483  0.5755E+00  0.2559E+03
     28.497  0.1020E+01  0.2559E+03
     28.511  0.3038E+00  0.2559E+03
     28.525  0.5602E-02  0.2559E+03
     28.540  0.5463E-01  0.2559E+03
     28.554  0.7768E+00  0.2559E+03
     28.568  0.9783E+00  0.2559E+03
     28.583  0.1237E+00  0.2559E+03
     28.597  0.3070E-01  0.2559E+03
     28.611  0.3022E+00  0.2559E+03
     28.626  0.1483E+00  0.2559E+03
     28.640  0.2901E-02  0.2559E+03
     28.654  0.1357E-02  0.2559E+03
     28.669  0.1605E+00  0.2559E+03
     28.683  0.6653E+00  0.2559E+03
     28.697  0.1389E+00  0.2560E+03
     28.712  0.9885E-03  0.2560E+03
     28.726  0.1577E-06  0.2560E+03
     28.740  0.4791E-12  0.2560E+03
     28.754  0.0000E+00  0.2560E+03
     28.769  0.1744E-10  0.2560E+03
     28.783  0.2098E-05  0.2560E+03
     28.797  0.5061E-02  0.2560E+03
     28.812  0.3351E+00  0.2560E+03
     28.826  0.1216E+01  0.2560E+03
     28.840  0.3712E+00  0.2560E+03
     28.855  0.6395E-02  0.2560E+03
     28.869  0.3088E-05  0.2560E+03
     28.883  0.8224E-06  0.2560E+03
     28.898  0.2777E-02  0.2560E+03
     28.912  0.2199E+00  0.2560E+03
     28.926  0.6484E+00  0.2560E+03
     28.941  0.9548E-01  0.2560E+03
     28.955  0.4507E-03  0.2560E+03
     28.969  0.4638E-07  0.2560E+03
     28.983  0.8997E-13  0.2560E+03
     28.998  0.0000E+00  0.2560E+03
     29.012  0.0000E+00  0.2560E+03
     29.026  0.0000E+00  0.2560E+03
     29.041  0.0000E+00  0.2560E+03
     29.055  0.0000E+00  0.2560E+03
     29.069  0.0000E+00  0.2560E+03
     29.084  0.0000E+00  0.2560E+03
     29.098  0.1567E-10  0.2560E+03
     29.112  0.1581E-05  0.2560E+03
     29.127  0.3139E-02  0.2560E+03
     29.141  0.1529E+00  0.2560E+03
     29.155  0.2990E+00  0.2560E+03
     29.170  0.2840E-01  0.2560E+03
     29.184  0.8052E-04  0.2560E+03
     29.198  0.4830E-08  0.2560E+03
     29.212  0.5368E-14  0.2560E+03
     29.227  0.0000E+00  0.2560E+03
     29.241  0.0000E+00  0.2560E+03
     29.255  0.0000E+00  0.2560E+03
     29.270  0.0000E+00  0.2560E+03
     29.284  0.0000E+00  0.2560E+03
     29.298  0.0000E+00  0.2560E+03
     29.313  0.0000E+00  0.2560E+03
     29.327  0.0000E+00  0.2560E+03
     29.341  0.0000E+00  0.2560E+03
     29.356  0.0000E+00  0.2560E+03
     29.370  0.0000E+00  0.2560E+03
     29.384  0.0000E+00  0.2560E+03
     29.399  0.0000E+00  0.2560E+03
     29.413  0.0000E+00  0.2560E+03
     29.427  0.0000E+00  0.2560E+03
     29.441  0.0000E+00  0.2560E+03
     29.456  0.0000E+00  0.2560E+03
     29.470  0.0000E+00  0.2560E+03
     29.484  0.0000E+00  0.2560E+03
     29.499  0.0000E+00  0.2560E+03
     29.513  0.0000E+00  0.2560E+03
     29.527  0.0000E+00  0.2560E+03
     29.542  0.0000E+00  0.2560E+03
     29.556  0.0000E+00  0.2560E+03
     29.570  0.0000E+00  0.2560E+03
     29.585  0.0000E+00  0.2560E+03
     29.599  0.0000E+00  0.2560E+03
     29.613  0.0000E+00  0.2560E+03
     29.628  0.0000E+00  0.2560E+03
     29.642  0.0000E+00  0.2560E+03
     29.656  0.0000E+00  0.2560E+03
     29.670  0.0000E+00  0.2560E+03
     29.685  0.0000E+00  0.2560E+03
     29.699  0.0000E+00  0.2560E+03
     29.713  0.0000E+00  0.2560E+03
     29.728  0.0000E+00  0.2560E+03
     29.742  0.0000E+00  0.2560E+03
     29.756  0.0000E+00  0.2560E+03
     29.771  0.0000E+00  0.2560E+03
     29.785  0.0000E+00  0.2560E+03
     29.799  0.0000E+00  0.2560E+03
     29.814  0.0000E+00  0.2560E+03
     29.828  0.0000E+00  0.2560E+03
     29.842  0.0000E+00  0.2560E+03
     29.857  0.0000E+00  0.2560E+03
     29.871  0.0000E+00  0.2560E+03
     29.885  0.0000E+00  0.2560E+03
     29.899  0.0000E+00  0.2560E+03
     29.914  0.0000E+00  0.2560E+03
     29.928  0.0000E+00  0.2560E+03
     29.942  0.0000E+00  0.2560E+03
     29.957  0.0000E+00  0.2560E+03
     29.971  0.0000E+00  0.2560E+03
     29.985  0.0000E+00  0.2560E+03
     30.000  0.0000E+00  0.2560E+03
     30.014  0.0000E+00  0.2560E+03
     30.028  0.0000E+00  0.2560E+03
     30.043  0.0000E+00  0.2560E+03
     30.057  0.0000E+00  0.2560E+03
     30.071  0.0000E+00  0.2560E+03
     30.086  0.0000E+00  0.2560E+03
     30.100  0.0000E+00  0.2560E+03
     30.114  0.0000E+00  0.2560E+03
     30.128  0.0000E+00  0.2560E+03
     30.143  0.0000E+00  0.2560E+03
     30.157  0.0000E+00  0.2560E+03
     30.171  0.0000E+00  0.2560E+03
     30.186  0.0000E+00  0.2560E+03
     30.200  0.0000E+00  0.2560E+03
     30.214  0.0000E+00  0.2560E+03
     30.229  0.0000E+00  0.2560E+03
     30.243  0.0000E+00  0.2560E+03
     30.257  0.0000E+00  0.2560E+03
     30.272  0.0000E+00  0.2560E+03
     30.286  0.0000E+00  0.2560E+03
     30.300  0.0000E+00  0.2560E+03
     30.315  0.0000E+00  0.2560E+03
     30.329  0.0000E+00  0.2560E+03
     30.343  0.0000E+00  0.2560E+03
     30.357  0.0000E+00  0.2560E+03
     30.372  0.0000E+00  0.2560E+03
     30.386  0.0000E+00  0.2560E+03
     30.400  0.0000E+00  0.2560E+03
     30.415  0.0000E+00  0.2560E+03
     30.429  0.0000E+00  0.2560E+03
     30.443  0.0000E+00  0.2560E+03
     30.458  0.0000E+00  0.2560E+03
     30.472  0.0000E+00  0.2560E+03
     30.486  0.0000E+00  0.2560E+03
     30.501  0.0000E+00  0.2560E+03
     30.515  0.0000E+00  0.2560E+03
     30.529  0.0000E+00  0.2560E+03
     30.544  0.0000E+00  0.2560E+03
     30.558  0.0000E+00  0.2560E+03
     30.572  0.0000E+00  0.2560E+03
     30.586  0.0000E+00  0.2560E+03
     30.601  0.0000E+00  0.2560E+03
     30.615  0.0000E+00  0.2560E+03
     30.629  0.0000E+00  0.2560E+03
     30.644  0.0000E+00  0.2560E+03
     30.658  0.0000E+00  0.2560E+03
     30.672  0.0000E+00  0.2560E+03
     30.687  0.0000E+00  0.2560E+03
     30.701  0.0000E+00  0.2560E+03
     30.715  0.0000E+00  0.2560E+03
     30.730  0.0000E+00  0.2560E+03
     30.744  0.0000E+00  0.2560E+03
     30.758  0.0000E+00  0.2560E+03
     30.773  0.0000E+00  0.2560E+03
     30.787  0.0000E+00  0.2560E+03
     30.801  0.0000E+00  0.2560E+03
     30.815  0.0000E+00  0.2560E+03
     30.830  0.0000E+00  0.2560E+03
     30.844  0.0000E+00  0.2560E+03
     30.858  0.0000E+00  0.2560E+03
     30.873  0.0000E+00  0.2560E+03
     30.887  0.0000E+00  0.2560E+03
     30.901  0.0000E+00  0.2560E+03
     30.916  0.0000E+00  0.2560E+03
     30.930  0.0000E+00  0.2560E+03
     30.944  0.0000E+00  0.2560E+03
     30.959  0.0000E+00  0.2560E+03
     30.973  0.0000E+00  0.2560E+03
     30.987  0.0000E+00  0.2560E+03
     31.002  0.0000E+00  0.2560E+03
     31.016  0.0000E+00  0.2560E+03
     31.030  0.0000E+00  0.2560E+03
     31.044  0.0000E+00  0.2560E+03
     31.059  0.0000E+00  0.2560E+03
     31.073  0.0000E+00  0.2560E+03
     31.087  0.0000E+00  0.2560E+03
     31.102  0.0000E+00  0.2560E+03
     31.116  0.0000E+00  0.2560E+03
     31.130  0.0000E+00  0.2560E+03
     31.145  0.0000E+00  0.2560E+03
     31.159  0.0000E+00  0.2560E+03
     31.173  0.0000E+00  0.2560E+03
     31.188  0.0000E+00  0.2560E+03
     31.202  0.0000E+00  0.2560E+03
     31.216  0.0000E+00  0.2560E+03
     31.231  0.0000E+00  0.2560E+03
     31.245  0.0000E+00  0.2560E+03
     31.259  0.0000E+00  0.2560E+03
     31.273  0.0000E+00  0.2560E+03
     31.288  0.0000E+00  0.2560E+03
     31.302  0.0000E+00  0.2560E+03
     31.316  0.0000E+00  0.2560E+03
     31.331  0.0000E+00  0.2560E+03
     31.345  0.0000E+00  0.2560E+03
     31.359  0.0000E+00  0.2560E+03
     31.374  0.0000E+00  0.2560E+03
     31.388  0.0000E+00  0.2560E+03
     31.402  0.0000E+00  0.2560E+03
     31.417  0.0000E+00  0.2560E+03
     31.431  0.0000E+00  0.2560E+03
     31.445  0.0000E+00  0.2560E+03
     31.460  0.0000E+00  0.2560E+03
     31.474  0.0000E+00  0.2560E+03
     31.488  0.0000E+00  0.2560E+03
     31.502  0.0000E+00  0.2560E+03
     31.517  0.0000E+00  0.2560E+03
     31.531  0.0000E+00  0.2560E+03
     31.545  0.0000E+00  0.2560E+03
     31.560  0.0000E+00  0.2560E+03
     31.574  0.0000E+00  0.2560E+03
     31.588  0.0000E+00  0.2560E+03
     31.603  0.0000E+00  0.2560E+03
     31.617  0.0000E+00  0.2560E+03
     31.631  0.0000E+00  0.2560E+03
     31.646  0.0000E+00  0.2560E+03
     31.660  0.0000E+00  0.2560E+03
     31.674  0.0000E+00  0.2560E+03
     31.689  0.0000E+00  0.2560E+03
     31.703  0.0000E+00  0.2560E+03
     31.717  0.0000E+00  0.2560E+03
     31.731  0.0000E+00  0.2560E+03
     31.746  0.0000E+00  0.2560E+03
