   8   8   0  16
  0.4142730E+02  0.5051000E-09  0.5051000E-09  0.1500000E-08  0.5000000E-15
  1.000000000000000E-004
  CAR 
 Dielectric                              
     33.54436581    -20.33799938 4000     -2.19836247      1.00000000
    -20.338  0.0000E+00  0.0000E+00
    -20.325  0.0000E+00  0.0000E+00
    -20.311  0.0000E+00  0.0000E+00
    -20.298  0.0000E+00  0.0000E+00
    -20.284  0.0000E+00  0.0000E+00
    -20.271  0.0000E+00  0.0000E+00
    -20.257  0.0000E+00  0.0000E+00
    -20.244  0.0000E+00  0.0000E+00
    -20.230  0.0000E+00  0.0000E+00
    -20.217  0.0000E+00  0.0000E+00
    -20.203  0.0000E+00  0.0000E+00
    -20.190  0.0000E+00  0.0000E+00
    -20.176  0.0000E+00  0.0000E+00
    -20.163  0.0000E+00  0.0000E+00
    -20.149  0.0000E+00  0.0000E+00
    -20.136  0.0000E+00  0.0000E+00
    -20.122  0.0000E+00  0.0000E+00
    -20.109  0.0000E+00  0.0000E+00
    -20.095  0.0000E+00  0.0000E+00
    -20.082  0.0000E+00  0.0000E+00
    -20.069  0.0000E+00  0.0000E+00
    -20.055  0.0000E+00  0.0000E+00
    -20.042  0.0000E+00  0.0000E+00
    -20.028  0.0000E+00  0.0000E+00
    -20.015  0.0000E+00  0.0000E+00
    -20.001  0.0000E+00  0.0000E+00
    -19.988  0.0000E+00  0.0000E+00
    -19.974  0.0000E+00  0.0000E+00
    -19.961  0.0000E+00  0.0000E+00
    -19.947  0.0000E+00  0.0000E+00
    -19.934  0.0000E+00  0.0000E+00
    -19.920  0.0000E+00  0.0000E+00
    -19.907  0.0000E+00  0.0000E+00
    -19.893  0.0000E+00  0.0000E+00
    -19.880  0.0000E+00  0.0000E+00
    -19.866  0.0000E+00  0.0000E+00
    -19.853  0.0000E+00  0.0000E+00
    -19.839  0.0000E+00  0.0000E+00
    -19.826  0.0000E+00  0.0000E+00
    -19.813  0.0000E+00  0.0000E+00
    -19.799  0.0000E+00  0.0000E+00
    -19.786  0.0000E+00  0.0000E+00
    -19.772  0.0000E+00  0.0000E+00
    -19.759  0.0000E+00  0.0000E+00
    -19.745  0.0000E+00  0.0000E+00
    -19.732  0.0000E+00  0.0000E+00
    -19.718  0.0000E+00  0.0000E+00
    -19.705  0.0000E+00  0.0000E+00
    -19.691  0.0000E+00  0.0000E+00
    -19.678  0.0000E+00  0.0000E+00
    -19.664  0.0000E+00  0.0000E+00
    -19.651  0.0000E+00  0.0000E+00
    -19.637  0.0000E+00  0.0000E+00
    -19.624  0.0000E+00  0.0000E+00
    -19.610  0.0000E+00  0.0000E+00
    -19.597  0.0000E+00  0.0000E+00
    -19.583  0.0000E+00  0.0000E+00
    -19.570  0.0000E+00  0.0000E+00
    -19.557  0.0000E+00  0.0000E+00
    -19.543  0.0000E+00  0.0000E+00
    -19.530  0.0000E+00  0.0000E+00
    -19.516  0.0000E+00  0.0000E+00
    -19.503  0.0000E+00  0.0000E+00
    -19.489  0.0000E+00  0.0000E+00
    -19.476  0.0000E+00  0.0000E+00
    -19.462  0.0000E+00  0.0000E+00
    -19.449  0.0000E+00  0.0000E+00
    -19.435  0.0000E+00  0.0000E+00
    -19.422  0.0000E+00  0.0000E+00
    -19.408  0.0000E+00  0.0000E+00
    -19.395  0.0000E+00  0.0000E+00
    -19.381  0.0000E+00  0.0000E+00
    -19.368  0.0000E+00  0.0000E+00
    -19.354  0.0000E+00  0.0000E+00
    -19.341  0.0000E+00  0.0000E+00
    -19.327  0.0000E+00  0.0000E+00
    -19.314  0.0000E+00  0.0000E+00
    -19.301  0.0000E+00  0.0000E+00
    -19.287  0.0000E+00  0.0000E+00
    -19.274  0.0000E+00  0.0000E+00
    -19.260  0.0000E+00  0.0000E+00
    -19.247  0.0000E+00  0.0000E+00
    -19.233  0.0000E+00  0.0000E+00
    -19.220  0.0000E+00  0.0000E+00
    -19.206  0.0000E+00  0.0000E+00
    -19.193  0.0000E+00  0.0000E+00
    -19.179  0.0000E+00  0.0000E+00
    -19.166  0.0000E+00  0.0000E+00
    -19.152  0.0000E+00  0.0000E+00
    -19.139  0.0000E+00  0.0000E+00
    -19.125  0.0000E+00  0.0000E+00
    -19.112  0.0000E+00  0.0000E+00
    -19.098  0.0000E+00  0.0000E+00
    -19.085  0.0000E+00  0.0000E+00
    -19.071  0.0000E+00  0.0000E+00
    -19.058  0.0000E+00  0.0000E+00
    -19.044  0.0000E+00  0.0000E+00
    -19.031  0.0000E+00  0.0000E+00
    -19.018  0.0000E+00  0.0000E+00
    -19.004  0.0000E+00  0.0000E+00
    -18.991  0.0000E+00  0.0000E+00
    -18.977  0.0000E+00  0.0000E+00
    -18.964  0.0000E+00  0.0000E+00
    -18.950  0.0000E+00  0.0000E+00
    -18.937  0.0000E+00  0.0000E+00
    -18.923  0.0000E+00  0.0000E+00
    -18.910  0.0000E+00  0.0000E+00
    -18.896  0.0000E+00  0.0000E+00
    -18.883  0.0000E+00  0.0000E+00
    -18.869  0.0000E+00  0.0000E+00
    -18.856  0.0000E+00  0.0000E+00
    -18.842  0.0000E+00  0.0000E+00
    -18.829  0.0000E+00  0.0000E+00
    -18.815  0.0000E+00  0.0000E+00
    -18.802  0.0000E+00  0.0000E+00
    -18.788  0.0000E+00  0.0000E+00
    -18.775  0.0000E+00  0.0000E+00
    -18.762  0.0000E+00  0.0000E+00
    -18.748  0.0000E+00  0.0000E+00
    -18.735  0.0000E+00  0.0000E+00
    -18.721  0.0000E+00  0.0000E+00
    -18.708  0.0000E+00  0.0000E+00
    -18.694  0.0000E+00  0.0000E+00
    -18.681  0.0000E+00  0.0000E+00
    -18.667  0.0000E+00  0.0000E+00
    -18.654  0.0000E+00  0.0000E+00
    -18.640  0.0000E+00  0.0000E+00
    -18.627  0.0000E+00  0.0000E+00
    -18.613  0.0000E+00  0.0000E+00
    -18.600  0.0000E+00  0.0000E+00
    -18.586  0.0000E+00  0.0000E+00
    -18.573  0.0000E+00  0.0000E+00
    -18.559  0.0000E+00  0.0000E+00
    -18.546  0.0000E+00  0.0000E+00
    -18.532  0.0000E+00  0.0000E+00
    -18.519  0.0000E+00  0.0000E+00
    -18.506  0.0000E+00  0.0000E+00
    -18.492  0.0000E+00  0.0000E+00
    -18.479  0.0000E+00  0.0000E+00
    -18.465  0.0000E+00  0.0000E+00
    -18.452  0.0000E+00  0.0000E+00
    -18.438  0.0000E+00  0.0000E+00
    -18.425  0.0000E+00  0.0000E+00
    -18.411  0.0000E+00  0.0000E+00
    -18.398  0.0000E+00  0.0000E+00
    -18.384  0.0000E+00  0.0000E+00
    -18.371  0.0000E+00  0.0000E+00
    -18.357  0.0000E+00  0.0000E+00
    -18.344  0.0000E+00  0.0000E+00
    -18.330  0.0000E+00  0.0000E+00
    -18.317  0.0000E+00  0.0000E+00
    -18.303  0.0000E+00  0.0000E+00
    -18.290  0.0000E+00  0.0000E+00
    -18.276  0.0000E+00  0.0000E+00
    -18.263  0.0000E+00  0.0000E+00
    -18.250  0.0000E+00  0.0000E+00
    -18.236  0.0000E+00  0.0000E+00
    -18.223  0.0000E+00  0.0000E+00
    -18.209  0.0000E+00  0.0000E+00
    -18.196  0.0000E+00  0.0000E+00
    -18.182  0.0000E+00  0.0000E+00
    -18.169  0.0000E+00  0.0000E+00
    -18.155  0.0000E+00  0.0000E+00
    -18.142  0.0000E+00  0.0000E+00
    -18.128  0.0000E+00  0.0000E+00
    -18.115  0.0000E+00  0.0000E+00
    -18.101  0.0000E+00  0.0000E+00
    -18.088  0.0000E+00  0.0000E+00
    -18.074  0.0000E+00  0.0000E+00
    -18.061  0.0000E+00  0.0000E+00
    -18.047  0.0000E+00  0.0000E+00
    -18.034  0.0000E+00  0.0000E+00
    -18.020  0.0000E+00  0.0000E+00
    -18.007  0.0000E+00  0.0000E+00
    -17.994  0.0000E+00  0.0000E+00
    -17.980  0.0000E+00  0.0000E+00
    -17.967  0.0000E+00  0.0000E+00
    -17.953  0.0000E+00  0.0000E+00
    -17.940  0.3657E-13  0.4927E-15
    -17.926  0.9403E-08  0.1267E-09
    -17.913  0.7881E-04  0.1062E-05
    -17.899  0.2597E-01  0.3510E-03
    -17.886  0.5188E+00  0.7341E-02
    -17.872  0.1412E+01  0.2637E-01
    -17.859  0.1592E+01  0.4782E-01
    -17.845  0.1598E+01  0.6935E-01
    -17.832  0.1602E+01  0.9093E-01
    -17.818  0.1606E+01  0.1126E+00
    -17.805  0.1609E+01  0.1343E+00
    -17.791  0.1603E+01  0.1559E+00
    -17.778  0.1609E+01  0.1775E+00
    -17.764  0.1642E+01  0.1997E+00
    -17.751  0.1609E+01  0.2213E+00
    -17.738  0.1606E+01  0.2430E+00
    -17.724  0.1682E+01  0.2656E+00
    -17.711  0.1567E+01  0.2868E+00
    -17.697  0.1703E+01  0.3097E+00
    -17.684  0.1589E+01  0.3311E+00
    -17.670  0.1689E+01  0.3539E+00
    -17.657  0.1619E+01  0.3757E+00
    -17.643  0.1691E+01  0.3985E+00
    -17.630  0.1619E+01  0.4203E+00
    -17.616  0.1728E+01  0.4436E+00
    -17.603  0.1574E+01  0.4648E+00
    -17.589  0.1807E+01  0.4891E+00
    -17.576  0.1523E+01  0.5096E+00
    -17.562  0.1875E+01  0.5349E+00
    -17.549  0.1516E+01  0.5553E+00
    -17.535  0.1821E+01  0.5799E+00
    -17.522  0.1689E+01  0.6026E+00
    -17.508  0.1622E+01  0.6245E+00
    -17.495  0.1899E+01  0.6501E+00
    -17.482  0.1511E+01  0.6704E+00
    -17.468  0.1919E+01  0.6963E+00
    -17.455  0.1704E+01  0.7192E+00
    -17.441  0.1602E+01  0.7408E+00
    -17.428  0.2031E+01  0.7682E+00
    -17.414  0.1551E+01  0.7891E+00
    -17.401  0.1812E+01  0.8135E+00
    -17.387  0.1984E+01  0.8402E+00
    -17.374  0.1512E+01  0.8606E+00
    -17.360  0.2001E+01  0.8876E+00
    -17.347  0.1908E+01  0.9133E+00
    -17.333  0.1542E+01  0.9341E+00
    -17.320  0.2137E+01  0.9629E+00
    -17.306  0.1866E+01  0.9880E+00
    -17.293  0.1599E+01  0.1010E+01
    -17.279  0.2238E+01  0.1040E+01
    -17.266  0.1876E+01  0.1065E+01
    -17.252  0.1659E+01  0.1087E+01
    -17.239  0.2325E+01  0.1119E+01
    -17.226  0.1947E+01  0.1145E+01
    -17.212  0.1712E+01  0.1168E+01
    -17.199  0.2417E+01  0.1201E+01
    -17.185  0.2093E+01  0.1229E+01
    -17.172  0.1773E+01  0.1253E+01
    -17.158  0.2518E+01  0.1287E+01
    -17.145  0.2342E+01  0.1318E+01
    -17.131  0.1895E+01  0.1344E+01
    -17.118  0.2648E+01  0.1379E+01
    -17.104  0.2759E+01  0.1416E+01
    -17.091  0.2203E+01  0.1446E+01
    -17.077  0.2997E+01  0.1487E+01
    -17.064  0.3935E+01  0.1540E+01
    -17.050  0.3321E+01  0.1584E+01
    -17.037  0.3248E+01  0.1628E+01
    -17.023  0.3374E+01  0.1674E+01
    -17.010  0.1421E+01  0.1693E+01
    -16.996  0.2387E+01  0.1725E+01
    -16.983  0.2286E+01  0.1756E+01
    -16.970  0.1193E+01  0.1772E+01
    -16.956  0.1676E+01  0.1794E+01
    -16.943  0.1863E+01  0.1819E+01
    -16.929  0.1029E+01  0.1833E+01
    -16.916  0.1186E+01  0.1849E+01
    -16.902  0.1540E+01  0.1870E+01
    -16.889  0.8750E+00  0.1882E+01
    -16.875  0.8855E+00  0.1894E+01
    -16.862  0.1201E+01  0.1910E+01
    -16.848  0.7868E+00  0.1921E+01
    -16.835  0.6355E+00  0.1929E+01
    -16.821  0.9062E+00  0.1941E+01
    -16.808  0.6714E+00  0.1950E+01
    -16.794  0.4844E+00  0.1957E+01
    -16.781  0.5986E+00  0.1965E+01
    -16.767  0.6114E+00  0.1973E+01
    -16.754  0.2514E+00  0.1977E+01
    -16.740  0.4777E+00  0.1983E+01
    -16.727  0.3860E+00  0.1988E+01
    -16.714  0.1506E+00  0.1990E+01
    -16.700  0.3217E+00  0.1995E+01
    -16.687  0.1735E+00  0.1997E+01
    -16.673  0.7728E-01  0.1998E+01
    -16.660  0.1327E+00  0.2000E+01
    -16.646  0.1981E-01  0.2000E+01
    -16.633  0.5978E-02  0.2000E+01
    -16.619  0.9881E-01  0.2001E+01
    -16.606  0.1057E+00  0.2003E+01
    -16.592  0.1148E+00  0.2004E+01
    -16.579  0.2967E+00  0.2008E+01
    -16.565  0.2162E+00  0.2011E+01
    -16.552  0.2387E+00  0.2015E+01
    -16.538  0.5240E+00  0.2022E+01
    -16.525  0.3056E+00  0.2026E+01
    -16.511  0.4157E+00  0.2031E+01
    -16.498  0.6733E+00  0.2040E+01
    -16.484  0.5449E+00  0.2048E+01
    -16.471  0.4864E+00  0.2054E+01
    -16.457  0.8674E+00  0.2066E+01
    -16.444  0.8550E+00  0.2077E+01
    -16.431  0.6012E+00  0.2086E+01
    -16.417  0.9437E+00  0.2098E+01
    -16.404  0.1333E+01  0.2116E+01
    -16.390  0.8637E+00  0.2128E+01
    -16.377  0.8729E+00  0.2140E+01
    -16.363  0.1902E+01  0.2165E+01
    -16.350  0.1434E+01  0.2185E+01
    -16.336  0.8918E+00  0.2197E+01
    -16.323  0.2469E+01  0.2230E+01
    -16.309  0.2266E+01  0.2260E+01
    -16.296  0.2048E+01  0.2288E+01
    -16.282  0.3499E+01  0.2335E+01
    -16.269  0.4116E+01  0.2391E+01
    -16.255  0.2710E+01  0.2427E+01
    -16.242  0.2190E+01  0.2457E+01
    -16.228  0.2331E+01  0.2488E+01
    -16.215  0.2513E+01  0.2522E+01
    -16.201  0.1820E+01  0.2546E+01
    -16.188  0.1636E+01  0.2568E+01
    -16.175  0.1953E+01  0.2595E+01
    -16.161  0.2043E+01  0.2622E+01
    -16.148  0.1619E+01  0.2644E+01
    -16.134  0.1356E+01  0.2662E+01
    -16.121  0.1711E+01  0.2685E+01
    -16.107  0.1814E+01  0.2710E+01
    -16.094  0.1553E+01  0.2731E+01
    -16.080  0.1126E+01  0.2746E+01
    -16.067  0.1539E+01  0.2767E+01
    -16.053  0.1674E+01  0.2789E+01
    -16.040  0.1422E+01  0.2808E+01
    -16.026  0.1193E+01  0.2825E+01
    -16.013  0.1142E+01  0.2840E+01
    -15.999  0.1634E+01  0.2862E+01
    -15.986  0.1421E+01  0.2881E+01
    -15.972  0.1097E+01  0.2896E+01
    -15.959  0.1130E+01  0.2911E+01
    -15.945  0.1165E+01  0.2927E+01
    -15.932  0.1652E+01  0.2949E+01
    -15.919  0.1072E+01  0.2963E+01
    -15.905  0.9166E+00  0.2976E+01
    -15.892  0.1225E+01  0.2992E+01
    -15.878  0.1147E+01  0.3008E+01
    -15.865  0.1449E+01  0.3027E+01
    -15.851  0.9597E+00  0.3040E+01
    -15.838  0.7642E+00  0.3051E+01
    -15.824  0.1252E+01  0.3067E+01
    -15.811  0.1235E+01  0.3084E+01
    -15.797  0.1089E+01  0.3099E+01
    -15.784  0.9302E+00  0.3111E+01
    -15.770  0.8400E+00  0.3123E+01
    -15.757  0.9622E+00  0.3136E+01
    -15.743  0.1485E+01  0.3156E+01
    -15.730  0.8072E+00  0.3166E+01
    -15.716  0.7428E+00  0.3176E+01
    -15.703  0.1007E+01  0.3190E+01
    -15.689  0.8911E+00  0.3202E+01
    -15.676  0.1214E+01  0.3218E+01
    -15.663  0.9757E+00  0.3232E+01
    -15.649  0.6333E+00  0.3240E+01
    -15.636  0.7304E+00  0.3250E+01
    -15.622  0.1154E+01  0.3265E+01
    -15.609  0.1013E+01  0.3279E+01
    -15.595  0.8054E+00  0.3290E+01
    -15.582  0.7653E+00  0.3300E+01
    -15.568  0.7015E+00  0.3310E+01
    -15.555  0.7822E+00  0.3320E+01
    -15.541  0.1309E+01  0.3338E+01
    -15.528  0.6695E+00  0.3347E+01
    -15.514  0.5889E+00  0.3355E+01
    -15.501  0.7624E+00  0.3365E+01
    -15.487  0.8255E+00  0.3376E+01
    -15.474  0.8912E+00  0.3388E+01
    -15.460  0.9741E+00  0.3401E+01
    -15.447  0.5674E+00  0.3409E+01
    -15.433  0.5316E+00  0.3416E+01
    -15.420  0.7368E+00  0.3426E+01
    -15.407  0.1033E+01  0.3440E+01
    -15.393  0.7882E+00  0.3451E+01
    -15.380  0.5456E+00  0.3458E+01
    -15.366  0.6932E+00  0.3467E+01
    -15.353  0.5196E+00  0.3474E+01
    -15.339  0.7476E+00  0.3484E+01
    -15.326  0.1053E+01  0.3499E+01
    -15.312  0.6359E+00  0.3507E+01
    -15.299  0.3150E+00  0.3511E+01
    -15.285  0.7117E+00  0.3521E+01
    -15.272  0.6426E+00  0.3530E+01
    -15.258  0.8073E+00  0.3541E+01
    -15.245  0.7200E+00  0.3550E+01
    -15.231  0.6496E+00  0.3559E+01
    -15.218  0.3069E+00  0.3563E+01
    -15.204  0.5618E+00  0.3571E+01
    -15.191  0.7810E+00  0.3581E+01
    -15.177  0.8359E+00  0.3592E+01
    -15.164  0.4771E+00  0.3599E+01
    -15.151  0.4529E+00  0.3605E+01
    -15.137  0.5723E+00  0.3613E+01
    -15.124  0.3864E+00  0.3618E+01
    -15.110  0.7746E+00  0.3628E+01
    -15.097  0.8309E+00  0.3640E+01
    -15.083  0.4159E+00  0.3645E+01
    -15.070  0.2438E+00  0.3648E+01
    -15.056  0.6163E+00  0.3657E+01
    -15.043  0.5236E+00  0.3664E+01
    -15.029  0.6417E+00  0.3672E+01
    -15.016  0.6759E+00  0.3682E+01
    -15.002  0.4169E+00  0.3687E+01
    -14.989  0.3544E+00  0.3692E+01
    -14.975  0.2888E+00  0.3696E+01
    -14.962  0.7085E+00  0.3705E+01
    -14.948  0.6845E+00  0.3715E+01
    -14.935  0.4628E+00  0.3721E+01
    -14.921  0.3111E+00  0.3725E+01
    -14.908  0.4513E+00  0.3731E+01
    -14.895  0.3340E+00  0.3736E+01
    -14.881  0.4316E+00  0.3741E+01
    -14.868  0.8391E+00  0.3753E+01
    -14.854  0.3990E+00  0.3758E+01
    -14.841  0.2514E+00  0.3762E+01
    -14.827  0.2662E+00  0.3765E+01
    -14.814  0.5297E+00  0.3772E+01
    -14.800  0.3850E+00  0.3777E+01
    -14.787  0.5836E+00  0.3785E+01
    -14.773  0.5323E+00  0.3792E+01
    -14.760  0.2104E+00  0.3795E+01
    -14.746  0.2731E+00  0.3799E+01
    -14.733  0.2583E+00  0.3802E+01
    -14.719  0.6140E+00  0.3811E+01
    -14.706  0.5278E+00  0.3818E+01
    -14.692  0.2977E+00  0.3822E+01
    -14.679  0.3340E+00  0.3826E+01
    -14.665  0.2327E+00  0.3829E+01
    -14.652  0.3150E+00  0.3834E+01
    -14.639  0.6689E+00  0.3843E+01
    -14.625  0.1856E+01  0.3868E+01
    -14.612  0.1668E+01  0.3890E+01
    -14.598  0.1443E+01  0.3910E+01
    -14.585  0.1699E+01  0.3933E+01
    -14.571  0.1630E+01  0.3955E+01
    -14.558  0.1731E+01  0.3978E+01
    -14.544  0.1851E+01  0.4003E+01
    -14.531  0.1898E+01  0.4028E+01
    -14.517  0.1609E+01  0.4050E+01
    -14.504  0.1591E+01  0.4071E+01
    -14.490  0.1644E+01  0.4094E+01
    -14.477  0.1899E+01  0.4119E+01
    -14.463  0.1979E+01  0.4146E+01
    -14.450  0.1632E+01  0.4168E+01
    -14.436  0.2004E+01  0.4195E+01
    -14.423  0.1731E+01  0.4218E+01
    -14.409  0.1371E+01  0.4237E+01
    -14.396  0.2272E+01  0.4267E+01
    -14.383  0.1827E+01  0.4292E+01
    -14.369  0.1893E+01  0.4317E+01
    -14.356  0.2034E+01  0.4345E+01
    -14.342  0.1762E+01  0.4369E+01
    -14.329  0.1794E+01  0.4393E+01
    -14.315  0.1842E+01  0.4418E+01
    -14.302  0.2281E+01  0.4448E+01
    -14.288  0.2080E+01  0.4476E+01
    -14.275  0.1757E+01  0.4500E+01
    -14.261  0.2317E+01  0.4531E+01
    -14.248  0.1926E+01  0.4557E+01
    -14.234  0.1753E+01  0.4581E+01
    -14.221  0.2444E+01  0.4614E+01
    -14.207  0.2397E+01  0.4646E+01
    -14.194  0.2050E+01  0.4674E+01
    -14.180  0.2191E+01  0.4703E+01
    -14.167  0.2379E+01  0.4735E+01
    -14.153  0.2239E+01  0.4765E+01
    -14.140  0.2232E+01  0.4795E+01
    -14.127  0.2804E+01  0.4833E+01
    -14.113  0.2711E+01  0.4870E+01
    -14.100  0.2269E+01  0.4900E+01
    -14.086  0.2945E+01  0.4940E+01
    -14.073  0.2774E+01  0.4977E+01
    -14.059  0.2848E+01  0.5016E+01
    -14.046  0.3424E+01  0.5062E+01
    -14.032  0.3751E+01  0.5112E+01
    -14.019  0.4099E+01  0.5168E+01
    -14.005  0.4770E+01  0.5232E+01
    -13.992  0.3915E+01  0.5285E+01
    -13.978  0.3430E+01  0.5331E+01
    -13.965  0.3110E+01  0.5373E+01
    -13.951  0.2941E+01  0.5412E+01
    -13.938  0.2922E+01  0.5452E+01
    -13.924  0.2407E+01  0.5484E+01
    -13.911  0.2446E+01  0.5517E+01
    -13.897  0.2343E+01  0.5549E+01
    -13.884  0.2300E+01  0.5580E+01
    -13.870  0.2286E+01  0.5611E+01
    -13.857  0.2121E+01  0.5639E+01
    -13.844  0.2138E+01  0.5668E+01
    -13.830  0.1852E+01  0.5693E+01
    -13.817  0.1964E+01  0.5719E+01
    -13.803  0.1837E+01  0.5744E+01
    -13.790  0.2003E+01  0.5771E+01
    -13.776  0.1772E+01  0.5795E+01
    -13.763  0.1688E+01  0.5818E+01
    -13.749  0.1752E+01  0.5841E+01
    -13.736  0.1657E+01  0.5864E+01
    -13.722  0.1631E+01  0.5886E+01
    -13.709  0.1605E+01  0.5907E+01
    -13.695  0.1576E+01  0.5928E+01
    -13.682  0.1549E+01  0.5949E+01
    -13.668  0.1525E+01  0.5970E+01
    -13.655  0.1437E+01  0.5989E+01
    -13.641  0.7596E+00  0.5999E+01
    -13.628  0.7390E-01  0.6000E+01
    -13.614  0.5291E-03  0.6000E+01
    -13.601  0.1881E-02  0.6000E+01
    -13.588  0.6593E-01  0.6001E+01
    -13.574  0.1273E+00  0.6003E+01
    -13.561  0.1563E-01  0.6003E+01
    -13.547  0.8812E-04  0.6003E+01
    -13.534  0.2066E-02  0.6003E+01
    -13.520  0.6842E-01  0.6004E+01
    -13.507  0.1298E+00  0.6006E+01
    -13.493  0.1033E+00  0.6007E+01
    -13.480  0.1097E+00  0.6009E+01
    -13.466  0.8314E-02  0.6009E+01
    -13.453  0.6271E-03  0.6009E+01
    -13.439  0.5865E-01  0.6010E+01
    -13.426  0.2764E+00  0.6014E+01
    -13.412  0.9032E-01  0.6015E+01
    -13.399  0.9916E-01  0.6016E+01
    -13.385  0.1010E+00  0.6017E+01
    -13.372  0.8294E-02  0.6018E+01
    -13.358  0.7271E-01  0.6019E+01
    -13.345  0.2731E+00  0.6022E+01
    -13.332  0.2589E+00  0.6026E+01
    -13.318  0.3611E-01  0.6026E+01
    -13.305  0.1168E+00  0.6028E+01
    -13.291  0.8260E-01  0.6029E+01
    -13.278  0.1099E+00  0.6030E+01
    -13.264  0.2947E+00  0.6034E+01
    -13.251  0.2887E+00  0.6038E+01
    -13.237  0.1463E+00  0.6040E+01
    -13.224  0.3494E-01  0.6041E+01
    -13.210  0.1455E+00  0.6043E+01
    -13.197  0.2008E+00  0.6045E+01
    -13.183  0.3761E+00  0.6050E+01
    -13.170  0.2077E+00  0.6053E+01
    -13.156  0.2654E+00  0.6057E+01
    -13.143  0.4380E-01  0.6057E+01
    -13.129  0.1203E+00  0.6059E+01
    -13.116  0.3800E+00  0.6064E+01
    -13.102  0.4099E+00  0.6070E+01
    -13.089  0.1905E+00  0.6072E+01
    -13.076  0.2788E+00  0.6076E+01
    -13.062  0.9352E-01  0.6077E+01
    -13.049  0.1739E+00  0.6080E+01
    -13.035  0.5578E+00  0.6087E+01
    -13.022  0.3931E+00  0.6092E+01
    -13.008  0.1906E+00  0.6095E+01
    -12.995  0.2795E+00  0.6099E+01
    -12.981  0.1206E+00  0.6100E+01
    -12.968  0.4392E+00  0.6106E+01
    -12.954  0.5982E+00  0.6114E+01
    -12.941  0.3422E+00  0.6119E+01
    -12.927  0.2140E+00  0.6122E+01
    -12.914  0.2557E+00  0.6125E+01
    -12.900  0.3197E+00  0.6130E+01
    -12.887  0.7620E+00  0.6140E+01
    -12.873  0.4593E+00  0.6146E+01
    -12.860  0.2665E+00  0.6150E+01
    -12.846  0.2804E+00  0.6153E+01
    -12.833  0.3384E+00  0.6158E+01
    -12.820  0.9227E+00  0.6170E+01
    -12.806  0.5611E+00  0.6178E+01
    -12.793  0.3475E+00  0.6183E+01
    -12.779  0.2142E+00  0.6185E+01
    -12.766  0.5625E+00  0.6193E+01
    -12.752  0.1223E+01  0.6210E+01
    -12.739  0.1237E+01  0.6226E+01
    -12.725  0.1831E+01  0.6251E+01
    -12.712  0.1962E+01  0.6277E+01
    -12.698  0.3462E+01  0.6324E+01
    -12.685  0.2584E+01  0.6359E+01
    -12.671  0.2182E+01  0.6388E+01
    -12.658  0.3336E+01  0.6433E+01
    -12.644  0.3193E+01  0.6476E+01
    -12.631  0.3726E+01  0.6526E+01
    -12.617  0.4452E+01  0.6586E+01
    -12.604  0.3967E+01  0.6640E+01
    -12.590  0.3088E+01  0.6681E+01
    -12.577  0.2517E+01  0.6715E+01
    -12.564  0.2742E+01  0.6752E+01
    -12.550  0.2537E+01  0.6786E+01
    -12.537  0.2345E+01  0.6818E+01
    -12.523  0.2627E+01  0.6853E+01
    -12.510  0.1801E+01  0.6878E+01
    -12.496  0.1208E+01  0.6894E+01
    -12.483  0.2397E+01  0.6926E+01
    -12.469  0.2816E+01  0.6964E+01
    -12.456  0.1791E+01  0.6988E+01
    -12.442  0.1106E+01  0.7003E+01
    -12.429  0.1328E+01  0.7021E+01
    -12.415  0.1924E+01  0.7047E+01
    -12.402  0.2324E+01  0.7078E+01
    -12.388  0.1667E+01  0.7101E+01
    -12.375  0.1117E+01  0.7116E+01
    -12.361  0.1501E+01  0.7136E+01
    -12.348  0.1884E+01  0.7162E+01
    -12.334  0.1068E+01  0.7176E+01
    -12.321  0.1232E+01  0.7193E+01
    -12.308  0.1633E+01  0.7215E+01
    -12.294  0.1689E+01  0.7237E+01
    -12.281  0.1821E+01  0.7262E+01
    -12.267  0.1303E+01  0.7279E+01
    -12.254  0.3679E+00  0.7284E+01
    -12.240  0.6968E+00  0.7294E+01
    -12.227  0.1860E+01  0.7319E+01
    -12.213  0.1744E+01  0.7342E+01
    -12.200  0.2069E+01  0.7370E+01
    -12.186  0.1071E+01  0.7385E+01
    -12.173  0.2450E+00  0.7388E+01
    -12.159  0.2966E+00  0.7392E+01
    -12.146  0.7687E+00  0.7402E+01
    -12.132  0.2326E+01  0.7434E+01
    -12.119  0.2294E+01  0.7464E+01
    -12.105  0.1033E+01  0.7478E+01
    -12.092  0.3401E+00  0.7483E+01
    -12.078  0.2690E+00  0.7487E+01
    -12.065  0.3462E+00  0.7491E+01
    -12.052  0.7764E+00  0.7502E+01
    -12.038  0.2723E+01  0.7538E+01
    -12.025  0.2022E+01  0.7566E+01
    -12.011  0.2540E+00  0.7569E+01
    -11.998  0.2856E+00  0.7573E+01
    -11.984  0.2690E+00  0.7577E+01
    -11.971  0.4180E+00  0.7582E+01
    -11.957  0.7231E+00  0.7592E+01
    -11.944  0.2687E+01  0.7628E+01
    -11.930  0.1583E+01  0.7649E+01
    -11.917  0.1178E+00  0.7651E+01
    -11.903  0.2538E+00  0.7654E+01
    -11.890  0.2575E+00  0.7658E+01
    -11.876  0.4669E+00  0.7664E+01
    -11.863  0.6485E+00  0.7673E+01
    -11.849  0.2176E+01  0.7702E+01
    -11.836  0.1505E+01  0.7723E+01
    -11.822  0.1530E+00  0.7725E+01
    -11.809  0.1999E+00  0.7727E+01
    -11.796  0.2634E+00  0.7731E+01
    -11.782  0.4508E+00  0.7737E+01
    -11.769  0.5964E+00  0.7745E+01
    -11.755  0.1534E+01  0.7766E+01
    -11.742  0.1507E+01  0.7786E+01
    -11.728  0.2797E+00  0.7790E+01
    -11.715  0.1298E+00  0.7791E+01
    -11.701  0.2850E+00  0.7795E+01
    -11.688  0.3689E+00  0.7800E+01
    -11.674  0.5755E+00  0.7808E+01
    -11.661  0.1049E+01  0.7822E+01
    -11.647  0.1335E+01  0.7840E+01
    -11.634  0.4600E+00  0.7846E+01
    -11.620  0.7734E+00  0.7857E+01
    -11.607  0.2782E+01  0.7894E+01
    -11.593  0.3674E+01  0.7944E+01
    -11.580  0.4291E+01  0.8002E+01
    -11.566  0.5983E+01  0.8082E+01
    -11.553  0.5812E+01  0.8161E+01
    -11.540  0.4186E+01  0.8217E+01
    -11.526  0.3538E+01  0.8265E+01
    -11.513  0.3146E+01  0.8307E+01
    -11.499  0.2197E+01  0.8337E+01
    -11.486  0.3188E+01  0.8380E+01
    -11.472  0.3561E+01  0.8428E+01
    -11.459  0.2291E+01  0.8458E+01
    -11.445  0.1412E+01  0.8477E+01
    -11.432  0.2689E+01  0.8514E+01
    -11.418  0.3017E+01  0.8554E+01
    -11.405  0.1977E+01  0.8581E+01
    -11.391  0.1301E+01  0.8598E+01
    -11.378  0.2077E+01  0.8626E+01
    -11.364  0.3321E+01  0.8671E+01
    -11.351  0.2725E+01  0.8708E+01
    -11.337  0.1813E+01  0.8732E+01
    -11.324  0.1081E+01  0.8747E+01
    -11.310  0.1241E+01  0.8764E+01
    -11.297  0.3115E+01  0.8806E+01
    -11.283  0.3487E+01  0.8853E+01
    -11.270  0.1851E+01  0.8878E+01
    -11.257  0.1280E+01  0.8895E+01
    -11.243  0.1176E+01  0.8911E+01
    -11.230  0.1515E+01  0.8931E+01
    -11.216  0.3244E+01  0.8975E+01
    -11.203  0.3440E+01  0.9021E+01
    -11.189  0.1468E+01  0.9041E+01
    -11.176  0.9038E+00  0.9053E+01
    -11.162  0.1317E+01  0.9071E+01
    -11.149  0.2066E+01  0.9099E+01
    -11.135  0.2794E+01  0.9136E+01
    -11.122  0.2773E+01  0.9174E+01
    -11.108  0.2186E+01  0.9203E+01
    -11.095  0.1112E+01  0.9218E+01
    -11.081  0.1036E+01  0.9232E+01
    -11.068  0.2014E+01  0.9259E+01
    -11.054  0.3204E+01  0.9302E+01
    -11.041  0.3240E+01  0.9346E+01
    -11.027  0.2720E+01  0.9383E+01
    -11.014  0.1719E+01  0.9406E+01
    -11.001  0.2065E+01  0.9434E+01
    -10.987  0.2786E+01  0.9471E+01
    -10.974  0.2614E+01  0.9506E+01
    -10.960  0.2146E+01  0.9535E+01
    -10.947  0.2762E+01  0.9573E+01
    -10.933  0.2194E+01  0.9602E+01
    -10.920  0.2312E+01  0.9633E+01
    -10.906  0.1778E+01  0.9657E+01
    -10.893  0.1493E+01  0.9677E+01
    -10.879  0.2022E+01  0.9705E+01
    -10.866  0.2952E+01  0.9744E+01
    -10.852  0.3275E+01  0.9788E+01
    -10.839  0.1420E+01  0.9808E+01
    -10.825  0.1387E+01  0.9826E+01
    -10.812  0.1333E+01  0.9844E+01
    -10.798  0.2042E+01  0.9872E+01
    -10.785  0.3318E+01  0.9916E+01
    -10.771  0.2785E+01  0.9954E+01
    -10.758  0.1327E+01  0.9972E+01
    -10.745  0.9787E+00  0.9985E+01
    -10.731  0.1844E+01  0.1001E+02
    -10.718  0.2746E+01  0.1005E+02
    -10.704  0.2086E+01  0.1008E+02
    -10.691  0.2429E+01  0.1011E+02
    -10.677  0.1567E+01  0.1013E+02
    -10.664  0.1047E+01  0.1014E+02
    -10.650  0.2611E+01  0.1018E+02
    -10.637  0.2257E+01  0.1021E+02
    -10.623  0.1683E+01  0.1023E+02
    -10.610  0.1864E+01  0.1026E+02
    -10.596  0.1668E+01  0.1028E+02
    -10.583  0.2020E+01  0.1031E+02
    -10.569  0.2475E+01  0.1034E+02
    -10.556  0.1512E+01  0.1036E+02
    -10.542  0.1675E+01  0.1038E+02
    -10.529  0.1755E+01  0.1041E+02
    -10.515  0.1602E+01  0.1043E+02
    -10.502  0.2984E+01  0.1047E+02
    -10.489  0.1598E+01  0.1049E+02
    -10.475  0.1389E+01  0.1051E+02
    -10.462  0.1726E+01  0.1053E+02
    -10.448  0.1335E+01  0.1055E+02
    -10.435  0.2704E+01  0.1059E+02
    -10.421  0.2273E+01  0.1062E+02
    -10.408  0.1467E+01  0.1064E+02
    -10.394  0.1495E+01  0.1066E+02
    -10.381  0.8366E+00  0.1067E+02
    -10.367  0.2459E+01  0.1070E+02
    -10.354  0.2911E+01  0.1074E+02
    -10.340  0.1788E+01  0.1076E+02
    -10.327  0.9005E+00  0.1078E+02
    -10.313  0.6853E+00  0.1079E+02
    -10.300  0.2338E+01  0.1082E+02
    -10.286  0.3468E+01  0.1086E+02
    -10.273  0.1287E+01  0.1088E+02
    -10.259  0.1078E+01  0.1090E+02
    -10.246  0.7742E+00  0.1091E+02
    -10.233  0.2024E+01  0.1093E+02
    -10.219  0.3316E+01  0.1098E+02
    -10.206  0.1085E+01  0.1099E+02
    -10.192  0.1949E+00  0.1100E+02
    -10.179  0.3519E+00  0.1100E+02
    -10.165  0.1881E+01  0.1103E+02
    -10.152  0.2607E+01  0.1106E+02
    -10.138  0.8436E+00  0.1107E+02
    -10.125  0.2481E+00  0.1107E+02
    -10.111  0.1206E+01  0.1109E+02
    -10.098  0.2131E+01  0.1112E+02
    -10.084  0.1949E+01  0.1115E+02
    -10.071  0.8296E+00  0.1116E+02
    -10.057  0.1414E+01  0.1118E+02
    -10.044  0.1406E+01  0.1120E+02
    -10.030  0.1810E+01  0.1122E+02
    -10.017  0.2506E+01  0.1125E+02
    -10.003  0.1388E+01  0.1127E+02
     -9.990  0.1854E+01  0.1130E+02
     -9.977  0.2386E+01  0.1133E+02
     -9.963  0.2775E+01  0.1137E+02
     -9.950  0.1950E+01  0.1139E+02
     -9.936  0.1490E+01  0.1141E+02
     -9.923  0.1686E+01  0.1144E+02
     -9.909  0.2275E+01  0.1147E+02
     -9.896  0.1945E+01  0.1149E+02
     -9.882  0.1385E+01  0.1151E+02
     -9.869  0.1520E+01  0.1153E+02
     -9.855  0.2132E+01  0.1156E+02
     -9.842  0.1758E+01  0.1158E+02
     -9.828  0.1375E+01  0.1160E+02
     -9.815  0.1524E+01  0.1162E+02
     -9.801  0.2096E+01  0.1165E+02
     -9.788  0.1405E+01  0.1167E+02
     -9.774  0.1421E+01  0.1169E+02
     -9.761  0.1778E+01  0.1171E+02
     -9.747  0.1680E+01  0.1174E+02
     -9.734  0.1246E+01  0.1175E+02
     -9.721  0.1864E+01  0.1178E+02
     -9.707  0.1773E+01  0.1180E+02
     -9.694  0.1748E+01  0.1183E+02
     -9.680  0.1930E+01  0.1185E+02
     -9.667  0.1805E+01  0.1188E+02
     -9.653  0.1949E+01  0.1190E+02
     -9.640  0.1538E+01  0.1192E+02
     -9.626  0.2011E+01  0.1195E+02
     -9.613  0.1893E+01  0.1198E+02
     -9.599  0.1736E+01  0.1200E+02
     -9.586  0.1579E+01  0.1202E+02
     -9.572  0.1744E+01  0.1204E+02
     -9.559  0.1288E+01  0.1206E+02
     -9.545  0.3357E+00  0.1207E+02
     -9.532  0.3227E+00  0.1207E+02
     -9.518  0.4174E+00  0.1208E+02
     -9.505  0.2702E+00  0.1208E+02
     -9.491  0.6810E+00  0.1209E+02
     -9.478  0.4480E+00  0.1209E+02
     -9.465  0.3555E+00  0.1210E+02
     -9.451  0.6030E+00  0.1211E+02
     -9.438  0.2580E+00  0.1211E+02
     -9.424  0.2077E+00  0.1211E+02
     -9.411  0.8312E+00  0.1212E+02
     -9.397  0.9477E+00  0.1214E+02
     -9.384  0.8298E+00  0.1215E+02
     -9.370  0.8194E+00  0.1216E+02
     -9.357  0.6286E+00  0.1217E+02
     -9.343  0.5047E+00  0.1217E+02
     -9.330  0.9972E+00  0.1219E+02
     -9.316  0.1334E+01  0.1221E+02
     -9.303  0.9022E+00  0.1222E+02
     -9.289  0.7263E+00  0.1223E+02
     -9.276  0.7369E+00  0.1224E+02
     -9.262  0.9056E+00  0.1225E+02
     -9.249  0.6747E+00  0.1226E+02
     -9.235  0.1156E+01  0.1228E+02
     -9.222  0.1357E+01  0.1229E+02
     -9.209  0.7464E+00  0.1230E+02
     -9.195  0.9369E+00  0.1232E+02
     -9.182  0.9296E+00  0.1233E+02
     -9.168  0.1123E+01  0.1234E+02
     -9.155  0.6225E+00  0.1235E+02
     -9.141  0.1152E+01  0.1237E+02
     -9.128  0.1186E+01  0.1238E+02
     -9.114  0.1297E+01  0.1240E+02
     -9.101  0.1286E+01  0.1242E+02
     -9.087  0.8195E+00  0.1243E+02
     -9.074  0.6868E+00  0.1244E+02
     -9.060  0.1033E+01  0.1245E+02
     -9.047  0.1428E+01  0.1247E+02
     -9.033  0.1629E+01  0.1249E+02
     -9.020  0.8385E+00  0.1251E+02
     -9.006  0.1451E+01  0.1252E+02
     -8.993  0.1144E+01  0.1254E+02
     -8.979  0.7828E+00  0.1255E+02
     -8.966  0.1245E+01  0.1257E+02
     -8.953  0.1402E+01  0.1259E+02
     -8.939  0.1753E+01  0.1261E+02
     -8.926  0.1329E+01  0.1263E+02
     -8.912  0.1266E+01  0.1264E+02
     -8.899  0.1173E+01  0.1266E+02
     -8.885  0.1138E+01  0.1268E+02
     -8.872  0.1631E+01  0.1270E+02
     -8.858  0.1613E+01  0.1272E+02
     -8.845  0.1561E+01  0.1274E+02
     -8.831  0.1550E+01  0.1276E+02
     -8.818  0.1773E+01  0.1279E+02
     -8.804  0.1150E+01  0.1280E+02
     -8.791  0.1516E+01  0.1282E+02
     -8.777  0.1751E+01  0.1285E+02
     -8.764  0.1995E+01  0.1287E+02
     -8.750  0.2201E+01  0.1290E+02
     -8.737  0.1496E+01  0.1292E+02
     -8.723  0.2225E+01  0.1295E+02
     -8.710  0.2647E+01  0.1299E+02
     -8.696  0.3413E+01  0.1303E+02
     -8.683  0.3802E+01  0.1308E+02
     -8.670  0.2821E+01  0.1312E+02
     -8.656  0.3185E+01  0.1317E+02
     -8.643  0.3592E+01  0.1321E+02
     -8.629  0.4170E+01  0.1327E+02
     -8.616  0.4140E+01  0.1333E+02
     -8.602  0.3464E+01  0.1337E+02
     -8.589  0.3873E+01  0.1342E+02
     -8.575  0.3514E+01  0.1347E+02
     -8.562  0.4046E+01  0.1353E+02
     -8.548  0.4091E+01  0.1358E+02
     -8.535  0.3547E+01  0.1363E+02
     -8.521  0.4415E+01  0.1369E+02
     -8.508  0.4641E+01  0.1375E+02
     -8.494  0.4140E+01  0.1381E+02
     -8.481  0.5916E+01  0.1389E+02
     -8.467  0.6139E+01  0.1397E+02
     -8.454  0.6385E+01  0.1406E+02
     -8.440  0.5590E+01  0.1413E+02
     -8.427  0.4560E+01  0.1419E+02
     -8.414  0.4515E+01  0.1425E+02
     -8.400  0.4354E+01  0.1431E+02
     -8.387  0.3097E+01  0.1435E+02
     -8.373  0.1638E+01  0.1438E+02
     -8.360  0.1234E+01  0.1439E+02
     -8.346  0.8398E+00  0.1440E+02
     -8.333  0.1113E+01  0.1442E+02
     -8.319  0.1250E+01  0.1444E+02
     -8.306  0.9595E+00  0.1445E+02
     -8.292  0.8909E+00  0.1446E+02
     -8.279  0.1400E+01  0.1448E+02
     -8.265  0.9800E+00  0.1449E+02
     -8.252  0.9027E+00  0.1450E+02
     -8.238  0.1174E+01  0.1452E+02
     -8.225  0.1304E+01  0.1454E+02
     -8.211  0.8383E+00  0.1455E+02
     -8.198  0.9943E+00  0.1456E+02
     -8.184  0.1318E+01  0.1458E+02
     -8.171  0.1162E+01  0.1460E+02
     -8.158  0.8296E+00  0.1461E+02
     -8.144  0.1053E+01  0.1462E+02
     -8.131  0.1394E+01  0.1464E+02
     -8.117  0.1049E+01  0.1465E+02
     -8.104  0.9090E+00  0.1467E+02
     -8.090  0.9800E+00  0.1468E+02
     -8.077  0.1518E+01  0.1470E+02
     -8.063  0.9992E+00  0.1471E+02
     -8.050  0.9016E+00  0.1473E+02
     -8.036  0.1022E+01  0.1474E+02
     -8.023  0.1445E+01  0.1476E+02
     -8.009  0.1160E+01  0.1478E+02
     -7.996  0.8342E+00  0.1479E+02
     -7.982  0.1013E+01  0.1480E+02
     -7.969  0.1371E+01  0.1482E+02
     -7.955  0.1300E+01  0.1484E+02
     -7.942  0.9540E+00  0.1485E+02
     -7.928  0.8103E+00  0.1486E+02
     -7.915  0.1393E+01  0.1488E+02
     -7.902  0.1317E+01  0.1490E+02
     -7.888  0.1141E+01  0.1491E+02
     -7.875  0.8843E+00  0.1492E+02
     -7.861  0.9471E+00  0.1494E+02
     -7.848  0.1630E+01  0.1496E+02
     -7.834  0.1158E+01  0.1497E+02
     -7.821  0.1054E+01  0.1499E+02
     -7.807  0.8916E+00  0.1500E+02
     -7.794  0.1173E+01  0.1502E+02
     -7.780  0.1632E+01  0.1504E+02
     -7.767  0.1105E+01  0.1505E+02
     -7.753  0.9883E+00  0.1507E+02
     -7.740  0.9558E+00  0.1508E+02
     -7.726  0.1362E+01  0.1510E+02
     -7.713  0.1564E+01  0.1512E+02
     -7.699  0.1139E+01  0.1513E+02
     -7.686  0.9422E+00  0.1515E+02
     -7.672  0.1036E+01  0.1516E+02
     -7.659  0.1481E+01  0.1518E+02
     -7.646  0.1543E+01  0.1520E+02
     -7.632  0.1199E+01  0.1522E+02
     -7.619  0.9460E+00  0.1523E+02
     -7.605  0.1087E+01  0.1524E+02
     -7.592  0.1556E+01  0.1527E+02
     -7.578  0.1625E+01  0.1529E+02
     -7.565  0.1241E+01  0.1530E+02
     -7.551  0.1048E+01  0.1532E+02
     -7.538  0.1081E+01  0.1533E+02
     -7.524  0.1637E+01  0.1535E+02
     -7.511  0.1804E+01  0.1538E+02
     -7.497  0.1294E+01  0.1540E+02
     -7.484  0.1263E+01  0.1541E+02
     -7.470  0.1071E+01  0.1543E+02
     -7.457  0.1782E+01  0.1545E+02
     -7.443  0.2025E+01  0.1548E+02
     -7.430  0.1664E+01  0.1550E+02
     -7.416  0.1470E+01  0.1552E+02
     -7.403  0.1448E+01  0.1554E+02
     -7.390  0.2187E+01  0.1557E+02
     -7.376  0.3122E+01  0.1561E+02
     -7.363  0.2348E+01  0.1564E+02
     -7.349  0.1675E+01  0.1567E+02
     -7.336  0.5656E+00  0.1567E+02
     -7.322  0.1476E+01  0.1569E+02
     -7.309  0.2931E+01  0.1573E+02
     -7.295  0.8964E+00  0.1575E+02
     -7.282  0.4692E+00  0.1575E+02
     -7.268  0.7490E+00  0.1576E+02
     -7.255  0.1421E+01  0.1578E+02
     -7.241  0.1855E+01  0.1581E+02
     -7.228  0.6085E+00  0.1581E+02
     -7.214  0.5208E+00  0.1582E+02
     -7.201  0.5932E+00  0.1583E+02
     -7.187  0.1140E+01  0.1585E+02
     -7.174  0.1703E+01  0.1587E+02
     -7.160  0.1258E+01  0.1589E+02
     -7.147  0.1094E+01  0.1590E+02
     -7.134  0.1100E+01  0.1591E+02
     -7.120  0.1332E+01  0.1593E+02
     -7.107  0.1786E+01  0.1596E+02
     -7.093  0.1225E+01  0.1597E+02
     -7.080  0.8586E+00  0.1598E+02
     -7.066  0.1263E+01  0.1600E+02
     -7.053  0.1275E+01  0.1602E+02
     -7.039  0.1325E+01  0.1604E+02
     -7.026  0.1109E+01  0.1605E+02
     -7.012  0.1137E+01  0.1607E+02
     -6.999  0.1301E+01  0.1608E+02
     -6.985  0.8687E+00  0.1610E+02
     -6.972  0.1089E+01  0.1611E+02
     -6.958  0.1339E+01  0.1613E+02
     -6.945  0.1255E+01  0.1615E+02
     -6.931  0.9034E+00  0.1616E+02
     -6.918  0.9013E+00  0.1617E+02
     -6.904  0.1124E+01  0.1619E+02
     -6.891  0.1227E+01  0.1620E+02
     -6.878  0.1129E+01  0.1622E+02
     -6.864  0.9352E+00  0.1623E+02
     -6.851  0.1023E+01  0.1624E+02
     -6.837  0.9582E+00  0.1626E+02
     -6.824  0.1012E+01  0.1627E+02
     -6.810  0.1183E+01  0.1629E+02
     -6.797  0.9405E+00  0.1630E+02
     -6.783  0.1150E+01  0.1631E+02
     -6.770  0.9808E+00  0.1633E+02
     -6.756  0.5151E+00  0.1633E+02
     -6.743  0.1370E+01  0.1635E+02
     -6.729  0.1229E+01  0.1637E+02
     -6.716  0.1045E+01  0.1638E+02
     -6.702  0.1227E+01  0.1640E+02
     -6.689  0.8598E+00  0.1641E+02
     -6.675  0.1039E+01  0.1643E+02
     -6.662  0.1669E+01  0.1645E+02
     -6.648  0.1451E+01  0.1647E+02
     -6.635  0.1254E+01  0.1648E+02
     -6.622  0.1299E+01  0.1650E+02
     -6.608  0.1166E+01  0.1652E+02
     -6.595  0.1468E+01  0.1654E+02
     -6.581  0.2201E+01  0.1657E+02
     -6.568  0.1531E+01  0.1659E+02
     -6.554  0.1239E+01  0.1660E+02
     -6.541  0.1688E+01  0.1663E+02
     -6.527  0.1788E+01  0.1665E+02
     -6.514  0.2454E+01  0.1668E+02
     -6.500  0.1704E+01  0.1671E+02
     -6.487  0.1606E+01  0.1673E+02
     -6.473  0.2440E+01  0.1676E+02
     -6.460  0.2526E+01  0.1680E+02
     -6.446  0.2259E+01  0.1683E+02
     -6.433  0.2414E+01  0.1686E+02
     -6.419  0.3341E+01  0.1690E+02
     -6.406  0.5086E+01  0.1697E+02
     -6.392  0.5578E+01  0.1705E+02
     -6.379  0.3770E+01  0.1710E+02
     -6.366  0.3357E+01  0.1714E+02
     -6.352  0.4170E+01  0.1720E+02
     -6.339  0.4262E+01  0.1726E+02
     -6.325  0.3807E+01  0.1731E+02
     -6.312  0.2364E+01  0.1734E+02
     -6.298  0.4214E+01  0.1740E+02
     -6.285  0.4505E+01  0.1746E+02
     -6.271  0.3728E+01  0.1751E+02
     -6.258  0.4823E+01  0.1757E+02
     -6.244  0.3629E+01  0.1762E+02
     -6.231  0.3929E+01  0.1767E+02
     -6.217  0.4205E+01  0.1773E+02
     -6.204  0.3362E+01  0.1778E+02
     -6.190  0.2501E+01  0.1781E+02
     -6.177  0.3034E+01  0.1785E+02
     -6.163  0.2602E+01  0.1789E+02
     -6.150  0.1820E+01  0.1791E+02
     -6.136  0.2235E+01  0.1794E+02
     -6.123  0.3675E+01  0.1799E+02
     -6.109  0.3963E+01  0.1804E+02
     -6.096  0.3906E+01  0.1810E+02
     -6.083  0.3346E+01  0.1814E+02
     -6.069  0.3642E+01  0.1819E+02
     -6.056  0.3123E+01  0.1823E+02
     -6.042  0.3255E+01  0.1828E+02
     -6.029  0.4831E+01  0.1834E+02
     -6.015  0.3806E+01  0.1839E+02
     -6.002  0.2588E+01  0.1843E+02
     -5.988  0.3458E+01  0.1847E+02
     -5.975  0.4117E+01  0.1853E+02
     -5.961  0.4467E+01  0.1859E+02
     -5.948  0.3957E+01  0.1864E+02
     -5.934  0.3654E+01  0.1869E+02
     -5.921  0.4449E+01  0.1875E+02
     -5.907  0.4891E+01  0.1882E+02
     -5.894  0.3885E+01  0.1887E+02
     -5.880  0.4428E+01  0.1893E+02
     -5.867  0.5711E+01  0.1901E+02
     -5.853  0.6927E+01  0.1910E+02
     -5.840  0.6418E+01  0.1919E+02
     -5.827  0.7750E+01  0.1929E+02
     -5.813  0.9540E+01  0.1942E+02
     -5.800  0.8479E+01  0.1953E+02
     -5.786  0.3861E+01  0.1959E+02
     -5.773  0.2282E+01  0.1962E+02
     -5.759  0.2853E+01  0.1966E+02
     -5.746  0.3478E+01  0.1970E+02
     -5.732  0.3030E+01  0.1974E+02
     -5.719  0.1238E+01  0.1976E+02
     -5.705  0.1956E+01  0.1979E+02
     -5.692  0.2214E+01  0.1982E+02
     -5.678  0.2950E+01  0.1986E+02
     -5.665  0.2493E+01  0.1989E+02
     -5.651  0.1983E+01  0.1992E+02
     -5.638  0.1594E+01  0.1994E+02
     -5.624  0.2132E+01  0.1997E+02
     -5.611  0.2107E+01  0.1999E+02
     -5.597  0.1736E+01  0.2002E+02
     -5.584  0.1874E+01  0.2004E+02
     -5.571  0.1632E+01  0.2007E+02
     -5.557  0.2233E+01  0.2010E+02
     -5.544  0.1916E+01  0.2012E+02
     -5.530  0.1446E+01  0.2014E+02
     -5.517  0.2007E+01  0.2017E+02
     -5.503  0.1669E+01  0.2019E+02
     -5.490  0.1605E+01  0.2021E+02
     -5.476  0.2090E+01  0.2024E+02
     -5.463  0.1132E+01  0.2026E+02
     -5.449  0.1068E+01  0.2027E+02
     -5.436  0.1912E+01  0.2030E+02
     -5.422  0.2395E+01  0.2033E+02
     -5.409  0.1360E+01  0.2035E+02
     -5.395  0.1451E+01  0.2037E+02
     -5.382  0.1313E+01  0.2038E+02
     -5.368  0.1483E+01  0.2040E+02
     -5.355  0.1676E+01  0.2043E+02
     -5.341  0.1612E+01  0.2045E+02
     -5.328  0.1114E+01  0.2046E+02
     -5.315  0.9963E+00  0.2048E+02
     -5.301  0.1460E+01  0.2050E+02
     -5.288  0.2166E+01  0.2053E+02
     -5.274  0.1675E+01  0.2055E+02
     -5.261  0.1305E+01  0.2057E+02
     -5.247  0.9748E+00  0.2058E+02
     -5.234  0.1238E+01  0.2060E+02
     -5.220  0.1386E+01  0.2061E+02
     -5.207  0.6383E+00  0.2062E+02
     -5.193  0.1570E+01  0.2064E+02
     -5.180  0.1569E+01  0.2066E+02
     -5.166  0.1713E+01  0.2069E+02
     -5.153  0.1614E+01  0.2071E+02
     -5.139  0.1126E+01  0.2072E+02
     -5.126  0.8712E+00  0.2074E+02
     -5.112  0.6350E+00  0.2074E+02
     -5.099  0.1056E+01  0.2076E+02
     -5.085  0.1660E+01  0.2078E+02
     -5.072  0.1574E+01  0.2080E+02
     -5.059  0.1126E+01  0.2082E+02
     -5.045  0.1075E+01  0.2083E+02
     -5.032  0.1144E+01  0.2085E+02
     -5.018  0.1348E+01  0.2087E+02
     -5.005  0.1103E+01  0.2088E+02
     -4.991  0.6758E+00  0.2089E+02
     -4.978  0.1282E+01  0.2091E+02
     -4.964  0.1167E+01  0.2092E+02
     -4.951  0.1166E+01  0.2094E+02
     -4.937  0.1157E+01  0.2095E+02
     -4.924  0.8404E+00  0.2097E+02
     -4.910  0.1052E+01  0.2098E+02
     -4.897  0.1316E+01  0.2100E+02
     -4.883  0.1153E+01  0.2101E+02
     -4.870  0.9575E+00  0.2103E+02
     -4.856  0.9583E+00  0.2104E+02
     -4.843  0.1075E+01  0.2105E+02
     -4.829  0.8921E+00  0.2107E+02
     -4.816  0.6982E+00  0.2107E+02
     -4.803  0.1361E+01  0.2109E+02
     -4.789  0.2220E+01  0.2112E+02
     -4.776  0.1848E+01  0.2115E+02
     -4.762  0.1074E+01  0.2116E+02
     -4.749  0.1612E+01  0.2118E+02
     -4.735  0.1531E+01  0.2120E+02
     -4.722  0.1626E+01  0.2123E+02
     -4.708  0.1617E+01  0.2125E+02
     -4.695  0.1637E+01  0.2127E+02
     -4.681  0.1167E+01  0.2129E+02
     -4.668  0.1548E+01  0.2131E+02
     -4.654  0.1895E+01  0.2133E+02
     -4.641  0.1789E+01  0.2136E+02
     -4.627  0.1036E+01  0.2137E+02
     -4.614  0.1493E+01  0.2139E+02
     -4.600  0.2080E+01  0.2142E+02
     -4.587  0.1397E+01  0.2144E+02
     -4.573  0.1270E+01  0.2145E+02
     -4.560  0.1540E+01  0.2148E+02
     -4.547  0.1375E+01  0.2149E+02
     -4.533  0.1212E+01  0.2151E+02
     -4.520  0.1933E+01  0.2154E+02
     -4.506  0.1680E+01  0.2156E+02
     -4.493  0.1537E+01  0.2158E+02
     -4.479  0.1724E+01  0.2160E+02
     -4.466  0.1059E+01  0.2162E+02
     -4.452  0.1412E+01  0.2164E+02
     -4.439  0.1485E+01  0.2166E+02
     -4.425  0.1273E+01  0.2167E+02
     -4.412  0.1555E+01  0.2169E+02
     -4.398  0.1697E+01  0.2172E+02
     -4.385  0.1437E+01  0.2174E+02
     -4.371  0.1657E+01  0.2176E+02
     -4.358  0.1757E+01  0.2178E+02
     -4.344  0.9685E+00  0.2180E+02
     -4.331  0.1456E+01  0.2182E+02
     -4.317  0.1365E+01  0.2183E+02
     -4.304  0.1262E+01  0.2185E+02
     -4.291  0.1300E+01  0.2187E+02
     -4.277  0.1811E+01  0.2189E+02
     -4.264  0.1964E+01  0.2192E+02
     -4.250  0.1434E+01  0.2194E+02
     -4.237  0.1057E+01  0.2195E+02
     -4.223  0.1238E+01  0.2197E+02
     -4.210  0.1067E+01  0.2198E+02
     -4.196  0.1487E+01  0.2200E+02
     -4.183  0.2079E+01  0.2203E+02
     -4.169  0.1720E+01  0.2205E+02
     -4.156  0.1024E+01  0.2207E+02
     -4.142  0.1037E+01  0.2208E+02
     -4.129  0.1272E+01  0.2210E+02
     -4.115  0.1621E+01  0.2212E+02
     -4.102  0.1458E+01  0.2214E+02
     -4.088  0.1847E+01  0.2217E+02
     -4.075  0.1318E+01  0.2218E+02
     -4.061  0.1212E+01  0.2220E+02
     -4.048  0.1192E+01  0.2222E+02
     -4.035  0.1501E+01  0.2224E+02
     -4.021  0.1466E+01  0.2226E+02
     -4.008  0.1028E+01  0.2227E+02
     -3.994  0.1227E+01  0.2229E+02
     -3.981  0.1969E+01  0.2231E+02
     -3.967  0.1565E+01  0.2233E+02
     -3.954  0.1495E+01  0.2235E+02
     -3.940  0.1222E+01  0.2237E+02
     -3.927  0.1345E+01  0.2239E+02
     -3.913  0.1122E+01  0.2240E+02
     -3.900  0.8260E+00  0.2242E+02
     -3.886  0.1042E+01  0.2243E+02
     -3.873  0.2355E+01  0.2246E+02
     -3.859  0.1967E+01  0.2249E+02
     -3.846  0.1181E+01  0.2250E+02
     -3.832  0.1351E+01  0.2252E+02
     -3.819  0.7817E+00  0.2253E+02
     -3.805  0.9799E+00  0.2255E+02
     -3.792  0.8683E+00  0.2256E+02
     -3.779  0.1030E+01  0.2257E+02
     -3.765  0.1645E+01  0.2259E+02
     -3.752  0.1462E+01  0.2261E+02
     -3.738  0.6586E+00  0.2262E+02
     -3.725  0.1328E+01  0.2264E+02
     -3.711  0.1624E+01  0.2266E+02
     -3.698  0.9062E+00  0.2267E+02
     -3.684  0.8044E+00  0.2268E+02
     -3.671  0.6457E+00  0.2269E+02
     -3.657  0.1523E+01  0.2271E+02
     -3.644  0.1389E+01  0.2273E+02
     -3.630  0.1147E+01  0.2275E+02
     -3.617  0.1233E+01  0.2276E+02
     -3.603  0.1482E+01  0.2278E+02
     -3.590  0.1277E+01  0.2280E+02
     -3.576  0.5327E+00  0.2281E+02
     -3.563  0.7257E+00  0.2282E+02
     -3.549  0.1822E+01  0.2284E+02
     -3.536  0.1678E+01  0.2287E+02
     -3.522  0.1224E+01  0.2288E+02
     -3.509  0.9701E+00  0.2290E+02
     -3.496  0.9171E+00  0.2291E+02
     -3.482  0.1230E+01  0.2292E+02
     -3.469  0.9192E+00  0.2294E+02
     -3.455  0.1617E+01  0.2296E+02
     -3.442  0.1974E+01  0.2299E+02
     -3.428  0.1511E+01  0.2301E+02
     -3.415  0.9754E+00  0.2302E+02
     -3.401  0.8486E+00  0.2303E+02
     -3.388  0.1018E+01  0.2304E+02
     -3.374  0.1546E+01  0.2306E+02
     -3.361  0.1959E+01  0.2309E+02
     -3.347  0.1573E+01  0.2311E+02
     -3.334  0.1178E+01  0.2313E+02
     -3.320  0.1724E+01  0.2315E+02
     -3.307  0.2259E+01  0.2318E+02
     -3.293  0.1798E+01  0.2321E+02
     -3.280  0.1750E+01  0.2323E+02
     -3.266  0.1134E+01  0.2324E+02
     -3.253  0.1738E+01  0.2327E+02
     -3.240  0.1373E+01  0.2329E+02
     -3.226  0.1376E+01  0.2331E+02
     -3.213  0.9793E+00  0.2332E+02
     -3.199  0.1003E+01  0.2333E+02
     -3.186  0.1663E+01  0.2335E+02
     -3.172  0.1297E+01  0.2337E+02
     -3.159  0.8499E+00  0.2338E+02
     -3.145  0.1071E+01  0.2340E+02
     -3.132  0.9130E+00  0.2341E+02
     -3.118  0.1318E+01  0.2343E+02
     -3.105  0.9802E+00  0.2344E+02
     -3.091  0.1449E+00  0.2344E+02
     -3.078  0.9320E+00  0.2346E+02
     -3.064  0.1953E+01  0.2348E+02
     -3.051  0.5693E+00  0.2349E+02
     -3.037  0.9285E+00  0.2350E+02
     -3.024  0.8884E+00  0.2351E+02
     -3.010  0.8880E+00  0.2353E+02
     -2.997  0.5666E+00  0.2353E+02
     -2.984  0.6420E+00  0.2354E+02
     -2.970  0.7630E+00  0.2355E+02
     -2.957  0.1181E+01  0.2357E+02
     -2.943  0.8125E+00  0.2358E+02
     -2.930  0.5496E+00  0.2359E+02
     -2.916  0.6986E+00  0.2360E+02
     -2.903  0.6857E+00  0.2361E+02
     -2.889  0.8351E+00  0.2362E+02
     -2.876  0.9755E+00  0.2363E+02
     -2.862  0.5168E+00  0.2364E+02
     -2.849  0.5575E+00  0.2364E+02
     -2.835  0.7558E+00  0.2365E+02
     -2.822  0.5060E+00  0.2366E+02
     -2.808  0.5109E+00  0.2367E+02
     -2.795  0.5809E+00  0.2368E+02
     -2.781  0.6748E+00  0.2369E+02
     -2.768  0.1166E+01  0.2370E+02
     -2.754  0.6082E+00  0.2371E+02
     -2.741  0.1663E+00  0.2371E+02
     -2.728  0.6264E+00  0.2372E+02
     -2.714  0.5895E+00  0.2373E+02
     -2.701  0.4733E+00  0.2373E+02
     -2.687  0.4212E+00  0.2374E+02
     -2.674  0.4440E+00  0.2375E+02
     -2.660  0.7282E+00  0.2376E+02
     -2.647  0.9402E+00  0.2377E+02
     -2.633  0.4395E+00  0.2377E+02
     -2.620  0.3479E+00  0.2378E+02
     -2.606  0.1420E+00  0.2378E+02
     -2.593  0.4127E+00  0.2379E+02
     -2.579  0.8067E+00  0.2380E+02
     -2.566  0.6993E+00  0.2381E+02
     -2.552  0.2400E+00  0.2381E+02
     -2.539  0.2866E+00  0.2381E+02
     -2.525  0.3144E+00  0.2382E+02
     -2.512  0.7647E+00  0.2383E+02
     -2.498  0.4462E+00  0.2383E+02
     -2.485  0.3654E+00  0.2384E+02
     -2.472  0.3283E+00  0.2384E+02
     -2.458  0.3327E+00  0.2385E+02
     -2.445  0.4106E+00  0.2385E+02
     -2.431  0.6378E+00  0.2386E+02
     -2.418  0.2585E+00  0.2387E+02
     -2.404  0.1400E+00  0.2387E+02
     -2.391  0.3376E+00  0.2387E+02
     -2.377  0.5003E+00  0.2388E+02
     -2.364  0.4895E+00  0.2389E+02
     -2.350  0.5181E+00  0.2389E+02
     -2.337  0.2237E+00  0.2390E+02
     -2.323  0.1036E+00  0.2390E+02
     -2.310  0.2506E-01  0.2390E+02
     -2.296  0.3683E+00  0.2390E+02
     -2.283  0.9668E+00  0.2392E+02
     -2.269  0.1144E+01  0.2393E+02
     -2.256  0.1192E+01  0.2395E+02
     -2.242  0.9859E+00  0.2396E+02
     -2.229  0.7000E+00  0.2397E+02
     -2.216  0.6931E+00  0.2398E+02
     -2.202  0.1069E+01  0.2399E+02
     -2.189  0.2065E+01  0.2402E+02
     -2.175  0.1368E+01  0.2404E+02
     -2.162  0.8877E+00  0.2405E+02
     -2.148  0.7647E+00  0.2406E+02
     -2.135  0.7975E+00  0.2407E+02
     -2.121  0.8067E+00  0.2408E+02
     -2.108  0.1284E+01  0.2410E+02
     -2.094  0.1760E+01  0.2412E+02
     -2.081  0.1423E+01  0.2414E+02
     -2.067  0.1016E+01  0.2416E+02
     -2.054  0.1048E+01  0.2417E+02
     -2.040  0.9326E+00  0.2418E+02
     -2.027  0.1148E+01  0.2420E+02
     -2.013  0.1187E+01  0.2422E+02
     -2.000  0.9754E+00  0.2423E+02
     -1.986  0.7701E+00  0.2424E+02
     -1.973  0.1706E+01  0.2426E+02
     -1.960  0.1495E+01  0.2428E+02
     -1.946  0.1320E+01  0.2430E+02
     -1.933  0.1491E+01  0.2432E+02
     -1.919  0.1093E+01  0.2433E+02
     -1.906  0.9245E+00  0.2435E+02
     -1.892  0.1032E+01  0.2436E+02
     -1.879  0.8973E+00  0.2437E+02
     -1.865  0.1170E+01  0.2439E+02
     -1.852  0.1321E+01  0.2441E+02
     -1.838  0.1800E+01  0.2443E+02
     -1.825  0.1577E+01  0.2445E+02
     -1.811  0.1326E+01  0.2447E+02
     -1.798  0.1470E+01  0.2449E+02
     -1.784  0.1246E+01  0.2451E+02
     -1.771  0.1250E+01  0.2452E+02
     -1.757  0.1053E+01  0.2454E+02
     -1.744  0.1357E+01  0.2456E+02
     -1.730  0.1070E+01  0.2457E+02
     -1.717  0.1276E+01  0.2459E+02
     -1.704  0.1818E+01  0.2461E+02
     -1.690  0.2103E+01  0.2464E+02
     -1.677  0.2151E+01  0.2467E+02
     -1.663  0.1794E+01  0.2469E+02
     -1.650  0.2424E+01  0.2473E+02
     -1.636  0.2087E+01  0.2475E+02
     -1.623  0.1869E+01  0.2478E+02
     -1.609  0.1512E+01  0.2480E+02
     -1.596  0.1788E+01  0.2482E+02
     -1.582  0.1136E+01  0.2484E+02
     -1.569  0.1384E+01  0.2486E+02
     -1.555  0.1905E+01  0.2488E+02
     -1.542  0.1885E+01  0.2491E+02
     -1.528  0.1631E+01  0.2493E+02
     -1.515  0.1809E+01  0.2496E+02
     -1.501  0.1614E+01  0.2498E+02
     -1.488  0.1242E+01  0.2499E+02
     -1.474  0.1160E+01  0.2501E+02
     -1.461  0.1706E+01  0.2503E+02
     -1.448  0.1610E+01  0.2505E+02
     -1.434  0.7734E+00  0.2506E+02
     -1.421  0.9634E+00  0.2508E+02
     -1.407  0.1161E+01  0.2509E+02
     -1.394  0.2226E+01  0.2512E+02
     -1.380  0.2174E+01  0.2515E+02
     -1.367  0.1272E+01  0.2517E+02
     -1.353  0.1169E+01  0.2519E+02
     -1.340  0.1099E+01  0.2520E+02
     -1.326  0.1199E+01  0.2522E+02
     -1.313  0.1639E+01  0.2524E+02
     -1.299  0.1372E+01  0.2526E+02
     -1.286  0.7546E+00  0.2527E+02
     -1.272  0.8438E+00  0.2528E+02
     -1.259  0.6873E+00  0.2529E+02
     -1.245  0.9357E+00  0.2530E+02
     -1.232  0.2078E+01  0.2533E+02
     -1.218  0.2309E+01  0.2536E+02
     -1.205  0.1994E+01  0.2539E+02
     -1.192  0.1198E+01  0.2540E+02
     -1.178  0.9315E+00  0.2541E+02
     -1.165  0.9455E+00  0.2543E+02
     -1.151  0.1157E+01  0.2544E+02
     -1.138  0.1003E+01  0.2546E+02
     -1.124  0.1256E+01  0.2547E+02
     -1.111  0.1614E+01  0.2550E+02
     -1.097  0.1170E+01  0.2551E+02
     -1.084  0.1112E+01  0.2553E+02
     -1.070  0.1722E+01  0.2555E+02
     -1.057  0.1342E+01  0.2557E+02
     -1.043  0.1378E+01  0.2559E+02
     -1.030  0.1217E+01  0.2560E+02
     -1.016  0.1129E+01  0.2562E+02
     -1.003  0.1887E+01  0.2564E+02
     -0.989  0.1952E+01  0.2567E+02
     -0.976  0.8646E+00  0.2568E+02
     -0.962  0.8425E+00  0.2569E+02
     -0.949  0.9540E+00  0.2570E+02
     -0.935  0.8516E+00  0.2572E+02
     -0.922  0.4648E+00  0.2572E+02
     -0.909  0.1486E+01  0.2574E+02
     -0.895  0.2044E+01  0.2577E+02
     -0.882  0.1799E+01  0.2579E+02
     -0.868  0.2423E+01  0.2583E+02
     -0.855  0.1522E+01  0.2585E+02
     -0.841  0.7873E+00  0.2586E+02
     -0.828  0.8164E+00  0.2587E+02
     -0.814  0.1257E+01  0.2589E+02
     -0.801  0.1131E+01  0.2590E+02
     -0.787  0.7492E+00  0.2591E+02
     -0.774  0.9539E+00  0.2592E+02
     -0.760  0.5612E+00  0.2593E+02
     -0.747  0.1059E+01  0.2595E+02
     -0.733  0.2899E+01  0.2599E+02
     -0.720  0.2604E+01  0.2602E+02
     -0.706  0.1209E+01  0.2604E+02
     -0.693  0.1295E+01  0.2605E+02
     -0.679  0.1365E+01  0.2607E+02
     -0.666  0.1279E+01  0.2609E+02
     -0.653  0.6911E+00  0.2610E+02
     -0.639  0.9465E+00  0.2611E+02
     -0.626  0.7988E+00  0.2612E+02
     -0.612  0.7474E+00  0.2613E+02
     -0.599  0.7965E+00  0.2614E+02
     -0.585  0.1417E+01  0.2616E+02
     -0.572  0.3247E+01  0.2621E+02
     -0.558  0.2947E+01  0.2625E+02
     -0.545  0.1147E+01  0.2626E+02
     -0.531  0.8264E+00  0.2627E+02
     -0.518  0.7774E+00  0.2628E+02
     -0.504  0.9569E+00  0.2630E+02
     -0.491  0.1663E+01  0.2632E+02
     -0.477  0.9552E+00  0.2633E+02
     -0.464  0.5994E+00  0.2634E+02
     -0.450  0.8452E+00  0.2635E+02
     -0.437  0.1670E+01  0.2637E+02
     -0.423  0.2518E+01  0.2641E+02
     -0.410  0.2100E+01  0.2644E+02
     -0.397  0.2062E+01  0.2646E+02
     -0.383  0.8727E+00  0.2647E+02
     -0.370  0.9687E+00  0.2649E+02
     -0.356  0.1141E+01  0.2650E+02
     -0.343  0.1628E+01  0.2653E+02
     -0.329  0.9432E+00  0.2654E+02
     -0.316  0.8945E+00  0.2655E+02
     -0.302  0.2047E+01  0.2658E+02
     -0.289  0.1649E+01  0.2660E+02
     -0.275  0.1562E+01  0.2662E+02
     -0.262  0.1399E+01  0.2664E+02
     -0.248  0.1422E+01  0.2666E+02
     -0.235  0.1704E+01  0.2668E+02
     -0.221  0.1378E+01  0.2670E+02
     -0.208  0.7919E+00  0.2671E+02
     -0.194  0.9796E+00  0.2672E+02
     -0.181  0.2372E+01  0.2676E+02
     -0.167  0.2704E+01  0.2679E+02
     -0.154  0.1593E+01  0.2681E+02
     -0.141  0.9468E+00  0.2683E+02
     -0.127  0.8922E+00  0.2684E+02
     -0.114  0.6663E+00  0.2685E+02
     -0.100  0.1243E+01  0.2686E+02
     -0.087  0.1723E+01  0.2689E+02
     -0.073  0.1914E+01  0.2691E+02
     -0.060  0.2493E+01  0.2695E+02
     -0.046  0.1465E+01  0.2697E+02
     -0.033  0.1605E+01  0.2699E+02
     -0.019  0.1499E+01  0.2701E+02
     -0.006  0.1712E+01  0.2703E+02
      0.008  0.1644E+01  0.2705E+02
      0.021  0.8724E+00  0.2707E+02
      0.035  0.8565E+00  0.2708E+02
      0.048  0.1198E+01  0.2709E+02
      0.062  0.1907E+01  0.2712E+02
      0.075  0.2078E+01  0.2715E+02
      0.089  0.2153E+01  0.2718E+02
      0.102  0.2147E+01  0.2721E+02
      0.115  0.2039E+01  0.2723E+02
      0.129  0.1024E+01  0.2725E+02
      0.142  0.6060E+00  0.2725E+02
      0.156  0.1068E+01  0.2727E+02
      0.169  0.1814E+01  0.2729E+02
      0.183  0.2557E+01  0.2733E+02
      0.196  0.1769E+01  0.2735E+02
      0.210  0.1301E+01  0.2737E+02
      0.223  0.1307E+01  0.2739E+02
      0.237  0.1752E+01  0.2741E+02
      0.250  0.2325E+01  0.2744E+02
      0.264  0.2136E+01  0.2747E+02
      0.277  0.1376E+01  0.2749E+02
      0.291  0.1160E+01  0.2750E+02
      0.304  0.1352E+01  0.2752E+02
      0.318  0.1703E+01  0.2755E+02
      0.331  0.1713E+01  0.2757E+02
      0.345  0.2163E+01  0.2760E+02
      0.358  0.2006E+01  0.2763E+02
      0.371  0.1923E+01  0.2765E+02
      0.385  0.9475E+00  0.2766E+02
      0.398  0.9958E+00  0.2768E+02
      0.412  0.2261E+01  0.2771E+02
      0.425  0.3041E+01  0.2775E+02
      0.439  0.2326E+01  0.2778E+02
      0.452  0.1367E+01  0.2780E+02
      0.466  0.1213E+01  0.2781E+02
      0.479  0.1486E+01  0.2783E+02
      0.493  0.1542E+01  0.2786E+02
      0.506  0.1216E+01  0.2787E+02
      0.520  0.2096E+01  0.2790E+02
      0.533  0.2462E+01  0.2793E+02
      0.547  0.1771E+01  0.2796E+02
      0.560  0.2316E+01  0.2799E+02
      0.574  0.2268E+01  0.2802E+02
      0.587  0.1626E+01  0.2804E+02
      0.601  0.2169E+01  0.2807E+02
      0.614  0.2274E+01  0.2810E+02
      0.627  0.1791E+01  0.2812E+02
      0.641  0.1101E+01  0.2814E+02
      0.654  0.1294E+01  0.2816E+02
      0.668  0.1261E+01  0.2817E+02
      0.681  0.2156E+01  0.2820E+02
      0.695  0.2958E+01  0.2824E+02
      0.708  0.2851E+01  0.2828E+02
      0.722  0.2876E+01  0.2832E+02
      0.735  0.1971E+01  0.2835E+02
      0.749  0.1278E+01  0.2836E+02
      0.762  0.1395E+01  0.2838E+02
      0.776  0.2099E+01  0.2841E+02
      0.789  0.3113E+01  0.2845E+02
      0.803  0.2721E+01  0.2849E+02
      0.816  0.3534E+01  0.2854E+02
      0.830  0.3656E+01  0.2859E+02
      0.843  0.2746E+01  0.2862E+02
      0.857  0.2847E+01  0.2866E+02
      0.870  0.3528E+01  0.2871E+02
      0.883  0.4265E+01  0.2877E+02
      0.897  0.4207E+01  0.2882E+02
      0.910  0.3095E+01  0.2887E+02
      0.924  0.3055E+01  0.2891E+02
      0.937  0.3656E+01  0.2896E+02
      0.951  0.3485E+01  0.2900E+02
      0.964  0.3731E+01  0.2905E+02
      0.978  0.4194E+01  0.2911E+02
      0.991  0.3726E+01  0.2916E+02
      1.005  0.5393E+01  0.2923E+02
      1.018  0.4092E+01  0.2929E+02
      1.032  0.3070E+01  0.2933E+02
      1.045  0.3948E+01  0.2938E+02
      1.059  0.3967E+01  0.2944E+02
      1.072  0.4359E+01  0.2949E+02
      1.086  0.4499E+01  0.2955E+02
      1.099  0.3734E+01  0.2961E+02
      1.113  0.3709E+01  0.2965E+02
      1.126  0.4810E+01  0.2972E+02
      1.139  0.3595E+01  0.2977E+02
      1.153  0.5350E+01  0.2984E+02
      1.166  0.5602E+01  0.2992E+02
      1.180  0.4578E+01  0.2998E+02
      1.193  0.3859E+01  0.3003E+02
      1.207  0.3669E+01  0.3008E+02
      1.220  0.4228E+01  0.3014E+02
      1.234  0.4021E+01  0.3019E+02
      1.247  0.3799E+01  0.3024E+02
      1.261  0.3206E+01  0.3028E+02
      1.274  0.3578E+01  0.3033E+02
      1.288  0.2485E+01  0.3037E+02
      1.301  0.2778E+01  0.3040E+02
      1.315  0.2785E+01  0.3044E+02
      1.328  0.4201E+01  0.3050E+02
      1.342  0.4817E+01  0.3056E+02
      1.355  0.4170E+01  0.3062E+02
      1.369  0.3090E+01  0.3066E+02
      1.382  0.3371E+01  0.3071E+02
      1.395  0.3392E+01  0.3075E+02
      1.409  0.3455E+01  0.3080E+02
      1.422  0.3074E+01  0.3084E+02
      1.436  0.3283E+01  0.3088E+02
      1.449  0.3102E+01  0.3093E+02
      1.463  0.4216E+01  0.3098E+02
      1.476  0.3477E+01  0.3103E+02
      1.490  0.3792E+01  0.3108E+02
      1.503  0.2862E+01  0.3112E+02
      1.517  0.3466E+01  0.3117E+02
      1.530  0.5228E+01  0.3124E+02
      1.544  0.4475E+01  0.3130E+02
      1.557  0.3805E+01  0.3135E+02
      1.571  0.4273E+01  0.3141E+02
      1.584  0.4097E+01  0.3146E+02
      1.598  0.3961E+01  0.3151E+02
      1.611  0.5393E+01  0.3159E+02
      1.625  0.6042E+01  0.3167E+02
      1.638  0.6257E+01  0.3175E+02
      1.652  0.5413E+01  0.3183E+02
      1.665  0.4711E+01  0.3189E+02
      1.678  0.5109E+01  0.3196E+02
      1.692  0.5728E+01  0.3203E+02
      1.705  0.3847E+01  0.3209E+02
      1.719  0.4188E+01  0.3214E+02
      1.732  0.4224E+01  0.3220E+02
      1.746  0.4325E+01  0.3226E+02
      1.759  0.3859E+01  0.3231E+02
      1.773  0.4029E+01  0.3236E+02
      1.786  0.3222E+01  0.3241E+02
      1.800  0.3699E+01  0.3246E+02
      1.813  0.3560E+01  0.3251E+02
      1.827  0.4432E+01  0.3257E+02
      1.840  0.4550E+01  0.3263E+02
      1.854  0.4797E+01  0.3269E+02
      1.867  0.3625E+01  0.3274E+02
      1.881  0.3963E+01  0.3279E+02
      1.894  0.4081E+01  0.3285E+02
      1.908  0.4313E+01  0.3291E+02
      1.921  0.4512E+01  0.3297E+02
      1.934  0.4358E+01  0.3303E+02
      1.948  0.3940E+01  0.3308E+02
      1.961  0.4860E+01  0.3314E+02
      1.975  0.4134E+01  0.3320E+02
      1.988  0.4822E+01  0.3327E+02
      2.002  0.3947E+01  0.3332E+02
      2.015  0.3562E+01  0.3337E+02
      2.029  0.3830E+01  0.3342E+02
      2.042  0.4566E+01  0.3348E+02
      2.056  0.5518E+01  0.3355E+02
      2.069  0.5217E+01  0.3362E+02
      2.083  0.4610E+01  0.3369E+02
      2.096  0.4483E+01  0.3375E+02
      2.110  0.5258E+01  0.3382E+02
      2.123  0.5109E+01  0.3389E+02
      2.137  0.4463E+01  0.3395E+02
      2.150  0.4660E+01  0.3401E+02
      2.164  0.4106E+01  0.3406E+02
      2.177  0.3920E+01  0.3412E+02
      2.190  0.3187E+01  0.3416E+02
      2.204  0.4087E+01  0.3422E+02
      2.217  0.5480E+01  0.3429E+02
      2.231  0.4974E+01  0.3436E+02
      2.244  0.4489E+01  0.3442E+02
      2.258  0.4197E+01  0.3447E+02
      2.271  0.5023E+01  0.3454E+02
      2.285  0.4543E+01  0.3460E+02
      2.298  0.4165E+01  0.3466E+02
      2.312  0.4421E+01  0.3472E+02
      2.325  0.4588E+01  0.3478E+02
      2.339  0.3891E+01  0.3483E+02
      2.352  0.4204E+01  0.3489E+02
      2.366  0.4308E+01  0.3495E+02
      2.379  0.4319E+01  0.3501E+02
      2.393  0.4917E+01  0.3507E+02
      2.406  0.5321E+01  0.3514E+02
      2.420  0.5778E+01  0.3522E+02
      2.433  0.5421E+01  0.3529E+02
      2.446  0.5057E+01  0.3536E+02
      2.460  0.5285E+01  0.3543E+02
      2.473  0.5651E+01  0.3551E+02
      2.487  0.5065E+01  0.3558E+02
      2.500  0.4448E+01  0.3564E+02
      2.514  0.4762E+01  0.3570E+02
      2.527  0.6162E+01  0.3578E+02
      2.541  0.6557E+01  0.3587E+02
      2.554  0.6605E+01  0.3596E+02
      2.568  0.5592E+01  0.3604E+02
      2.581  0.5655E+01  0.3611E+02
      2.595  0.5665E+01  0.3619E+02
      2.608  0.5376E+01  0.3626E+02
      2.622  0.6942E+01  0.3636E+02
      2.635  0.4370E+01  0.3641E+02
      2.649  0.5589E+01  0.3649E+02
      2.662  0.6026E+01  0.3657E+02
      2.676  0.5054E+01  0.3664E+02
      2.689  0.5650E+01  0.3672E+02
      2.702  0.6032E+01  0.3680E+02
      2.716  0.5344E+01  0.3687E+02
      2.729  0.5051E+01  0.3694E+02
      2.743  0.5323E+01  0.3701E+02
      2.756  0.5303E+01  0.3708E+02
      2.770  0.7093E+01  0.3718E+02
      2.783  0.8430E+01  0.3729E+02
      2.797  0.6637E+01  0.3738E+02
      2.810  0.4941E+01  0.3745E+02
      2.824  0.4639E+01  0.3751E+02
      2.837  0.5224E+01  0.3758E+02
      2.851  0.5140E+01  0.3765E+02
      2.864  0.6019E+01  0.3773E+02
      2.878  0.6019E+01  0.3781E+02
      2.891  0.4898E+01  0.3788E+02
      2.905  0.4747E+01  0.3794E+02
      2.918  0.5129E+01  0.3801E+02
      2.932  0.5417E+01  0.3808E+02
      2.945  0.6273E+01  0.3817E+02
      2.958  0.6506E+01  0.3825E+02
      2.972  0.6595E+01  0.3834E+02
      2.985  0.6079E+01  0.3842E+02
      2.999  0.5401E+01  0.3850E+02
      3.012  0.5759E+01  0.3857E+02
      3.026  0.4301E+01  0.3863E+02
      3.039  0.5800E+01  0.3871E+02
      3.053  0.5921E+01  0.3879E+02
      3.066  0.4282E+01  0.3885E+02
      3.080  0.4065E+01  0.3890E+02
      3.093  0.6150E+01  0.3899E+02
      3.107  0.7788E+01  0.3909E+02
      3.120  0.6768E+01  0.3918E+02
      3.134  0.5171E+01  0.3925E+02
      3.147  0.5452E+01  0.3933E+02
      3.161  0.6001E+01  0.3941E+02
      3.174  0.6088E+01  0.3949E+02
      3.188  0.5401E+01  0.3956E+02
      3.201  0.6186E+01  0.3964E+02
      3.214  0.6351E+01  0.3973E+02
      3.228  0.5875E+01  0.3981E+02
      3.241  0.6042E+01  0.3989E+02
      3.255  0.5317E+01  0.3996E+02
      3.268  0.5525E+01  0.4004E+02
      3.282  0.6567E+01  0.4013E+02
      3.295  0.6386E+01  0.4021E+02
      3.309  0.5648E+01  0.4029E+02
      3.322  0.6080E+01  0.4037E+02
      3.336  0.5910E+01  0.4045E+02
      3.349  0.5368E+01  0.4052E+02
      3.363  0.5125E+01  0.4059E+02
      3.376  0.4837E+01  0.4066E+02
      3.390  0.6147E+01  0.4074E+02
      3.403  0.6437E+01  0.4082E+02
      3.417  0.6246E+01  0.4091E+02
      3.430  0.6206E+01  0.4099E+02
      3.444  0.4543E+01  0.4105E+02
      3.457  0.6827E+01  0.4115E+02
      3.470  0.6080E+01  0.4123E+02
      3.484  0.5837E+01  0.4131E+02
      3.497  0.6169E+01  0.4139E+02
      3.511  0.6601E+01  0.4148E+02
      3.524  0.5633E+01  0.4155E+02
      3.538  0.7508E+01  0.4166E+02
      3.551  0.8283E+01  0.4177E+02
      3.565  0.4815E+01  0.4183E+02
      3.578  0.4642E+01  0.4189E+02
      3.592  0.5036E+01  0.4196E+02
      3.605  0.4783E+01  0.4203E+02
      3.619  0.5634E+01  0.4210E+02
      3.632  0.6250E+01  0.4219E+02
      3.646  0.5515E+01  0.4226E+02
      3.659  0.4387E+01  0.4232E+02
      3.673  0.4413E+01  0.4238E+02
      3.686  0.5341E+01  0.4245E+02
      3.700  0.5899E+01  0.4253E+02
      3.713  0.3312E+01  0.4258E+02
      3.726  0.4259E+01  0.4263E+02
      3.740  0.5493E+01  0.4271E+02
      3.753  0.3865E+01  0.4276E+02
      3.767  0.4947E+01  0.4283E+02
      3.780  0.5288E+01  0.4290E+02
      3.794  0.3685E+01  0.4295E+02
      3.807  0.5076E+01  0.4302E+02
      3.821  0.5011E+01  0.4308E+02
      3.834  0.4774E+01  0.4315E+02
      3.848  0.5895E+01  0.4323E+02
      3.861  0.6728E+01  0.4332E+02
      3.875  0.5408E+01  0.4339E+02
      3.888  0.4628E+01  0.4345E+02
      3.902  0.6399E+01  0.4354E+02
      3.915  0.7838E+01  0.4364E+02
      3.929  0.5812E+01  0.4372E+02
      3.942  0.7045E+01  0.4382E+02
      3.956  0.6410E+01  0.4390E+02
      3.969  0.4661E+01  0.4397E+02
      3.982  0.7582E+01  0.4407E+02
      3.996  0.8161E+01  0.4418E+02
      4.009  0.8779E+01  0.4430E+02
      4.023  0.7854E+01  0.4440E+02
      4.036  0.7389E+01  0.4450E+02
      4.050  0.6493E+01  0.4459E+02
      4.063  0.6031E+01  0.4467E+02
      4.077  0.5969E+01  0.4475E+02
      4.090  0.7521E+01  0.4485E+02
      4.104  0.6981E+01  0.4495E+02
      4.117  0.6955E+01  0.4504E+02
      4.131  0.5995E+01  0.4512E+02
      4.144  0.5198E+01  0.4519E+02
      4.158  0.5745E+01  0.4527E+02
      4.171  0.4365E+01  0.4533E+02
      4.185  0.6207E+01  0.4541E+02
      4.198  0.7602E+01  0.4551E+02
      4.212  0.6509E+01  0.4560E+02
      4.225  0.5383E+01  0.4567E+02
      4.239  0.4185E+01  0.4573E+02
      4.252  0.4605E+01  0.4579E+02
      4.265  0.6370E+01  0.4588E+02
      4.279  0.6324E+01  0.4596E+02
      4.292  0.6786E+01  0.4606E+02
      4.306  0.5541E+01  0.4613E+02
      4.319  0.5207E+01  0.4620E+02
      4.333  0.5477E+01  0.4627E+02
      4.346  0.6393E+01  0.4636E+02
      4.360  0.5199E+01  0.4643E+02
      4.373  0.5410E+01  0.4650E+02
      4.387  0.5580E+01  0.4658E+02
      4.400  0.5044E+01  0.4665E+02
      4.414  0.5070E+01  0.4671E+02
      4.427  0.6437E+01  0.4680E+02
      4.441  0.5547E+01  0.4688E+02
      4.454  0.6073E+01  0.4696E+02
      4.468  0.5667E+01  0.4703E+02
      4.481  0.7061E+01  0.4713E+02
      4.495  0.7504E+01  0.4723E+02
      4.508  0.5914E+01  0.4731E+02
      4.521  0.4443E+01  0.4737E+02
      4.535  0.5578E+01  0.4744E+02
      4.548  0.5749E+01  0.4752E+02
      4.562  0.6006E+01  0.4760E+02
      4.575  0.5375E+01  0.4768E+02
      4.589  0.6970E+01  0.4777E+02
      4.602  0.6064E+01  0.4785E+02
      4.616  0.6569E+01  0.4794E+02
      4.629  0.6052E+01  0.4802E+02
      4.643  0.5956E+01  0.4810E+02
      4.656  0.5291E+01  0.4817E+02
      4.670  0.5346E+01  0.4824E+02
      4.683  0.5682E+01  0.4832E+02
      4.697  0.6669E+01  0.4841E+02
      4.710  0.5124E+01  0.4848E+02
      4.724  0.6373E+01  0.4857E+02
      4.737  0.7614E+01  0.4867E+02
      4.751  0.7168E+01  0.4877E+02
      4.764  0.5501E+01  0.4884E+02
      4.777  0.4829E+01  0.4890E+02
      4.791  0.5720E+01  0.4898E+02
      4.804  0.5914E+01  0.4906E+02
      4.818  0.6726E+01  0.4915E+02
      4.831  0.7273E+01  0.4925E+02
      4.845  0.7005E+01  0.4934E+02
      4.858  0.6152E+01  0.4943E+02
      4.872  0.5504E+01  0.4950E+02
      4.885  0.5377E+01  0.4957E+02
      4.899  0.6299E+01  0.4966E+02
      4.912  0.7812E+01  0.4976E+02
      4.926  0.7932E+01  0.4987E+02
      4.939  0.6910E+01  0.4996E+02
      4.953  0.5238E+01  0.5003E+02
      4.966  0.7828E+01  0.5014E+02
      4.980  0.7893E+01  0.5025E+02
      4.993  0.6568E+01  0.5033E+02
      5.007  0.7709E+01  0.5044E+02
      5.020  0.7424E+01  0.5054E+02
      5.033  0.7483E+01  0.5064E+02
      5.047  0.8405E+01  0.5075E+02
      5.060  0.7477E+01  0.5085E+02
      5.074  0.6222E+01  0.5094E+02
      5.087  0.6954E+01  0.5103E+02
      5.101  0.8067E+01  0.5114E+02
      5.114  0.8447E+01  0.5125E+02
      5.128  0.7594E+01  0.5136E+02
      5.141  0.7944E+01  0.5146E+02
      5.155  0.7263E+01  0.5156E+02
      5.168  0.8141E+01  0.5167E+02
      5.182  0.8810E+01  0.5179E+02
      5.195  0.7850E+01  0.5190E+02
      5.209  0.5563E+01  0.5197E+02
      5.222  0.6295E+01  0.5205E+02
      5.236  0.7234E+01  0.5215E+02
      5.249  0.6826E+01  0.5224E+02
      5.263  0.9167E+01  0.5237E+02
      5.276  0.1121E+02  0.5252E+02
      5.289  0.1059E+02  0.5266E+02
      5.303  0.9553E+01  0.5279E+02
      5.316  0.7539E+01  0.5289E+02
      5.330  0.5597E+01  0.5297E+02
      5.343  0.5091E+01  0.5304E+02
      5.357  0.7280E+01  0.5313E+02
      5.370  0.7409E+01  0.5323E+02
      5.384  0.5791E+01  0.5331E+02
      5.397  0.6053E+01  0.5339E+02
      5.411  0.5781E+01  0.5347E+02
      5.424  0.5315E+01  0.5354E+02
      5.438  0.5461E+01  0.5362E+02
      5.451  0.6144E+01  0.5370E+02
      5.465  0.5755E+01  0.5378E+02
      5.478  0.5017E+01  0.5384E+02
      5.492  0.4166E+01  0.5390E+02
      5.505  0.4587E+01  0.5396E+02
      5.519  0.5246E+01  0.5403E+02
      5.532  0.6723E+01  0.5412E+02
      5.545  0.5899E+01  0.5420E+02
      5.559  0.5548E+01  0.5428E+02
      5.572  0.6260E+01  0.5436E+02
      5.586  0.5074E+01  0.5443E+02
      5.599  0.4086E+01  0.5449E+02
      5.613  0.5232E+01  0.5456E+02
      5.626  0.4918E+01  0.5462E+02
      5.640  0.4490E+01  0.5468E+02
      5.653  0.6077E+01  0.5476E+02
      5.667  0.6085E+01  0.5485E+02
      5.680  0.6517E+01  0.5493E+02
      5.694  0.8563E+01  0.5505E+02
      5.707  0.7123E+01  0.5515E+02
      5.721  0.6812E+01  0.5524E+02
      5.734  0.6333E+01  0.5532E+02
      5.748  0.6247E+01  0.5541E+02
      5.761  0.6699E+01  0.5550E+02
      5.775  0.5780E+01  0.5558E+02
      5.788  0.7474E+01  0.5568E+02
      5.801  0.7230E+01  0.5577E+02
      5.815  0.6247E+01  0.5586E+02
      5.828  0.6800E+01  0.5595E+02
      5.842  0.6310E+01  0.5603E+02
      5.855  0.6573E+01  0.5612E+02
      5.869  0.6664E+01  0.5621E+02
      5.882  0.6424E+01  0.5630E+02
      5.896  0.5741E+01  0.5638E+02
      5.909  0.6936E+01  0.5647E+02
      5.923  0.6740E+01  0.5656E+02
      5.936  0.5659E+01  0.5664E+02
      5.950  0.7350E+01  0.5674E+02
      5.963  0.6409E+01  0.5682E+02
      5.977  0.6326E+01  0.5691E+02
      5.990  0.7055E+01  0.5700E+02
      6.004  0.5542E+01  0.5708E+02
      6.017  0.4558E+01  0.5714E+02
      6.031  0.6774E+01  0.5723E+02
      6.044  0.6775E+01  0.5732E+02
      6.057  0.6181E+01  0.5740E+02
      6.071  0.4719E+01  0.5747E+02
      6.084  0.6985E+01  0.5756E+02
      6.098  0.7131E+01  0.5766E+02
      6.111  0.5986E+01  0.5774E+02
      6.125  0.7351E+01  0.5784E+02
      6.138  0.6129E+01  0.5792E+02
      6.152  0.6770E+01  0.5801E+02
      6.165  0.5510E+01  0.5809E+02
      6.179  0.5524E+01  0.5816E+02
      6.192  0.6632E+01  0.5825E+02
      6.206  0.7177E+01  0.5835E+02
      6.219  0.7663E+01  0.5845E+02
      6.233  0.5375E+01  0.5852E+02
      6.246  0.4845E+01  0.5859E+02
      6.260  0.6034E+01  0.5867E+02
      6.273  0.6694E+01  0.5876E+02
      6.287  0.5985E+01  0.5884E+02
      6.300  0.6104E+01  0.5892E+02
      6.313  0.6523E+01  0.5901E+02
      6.327  0.6045E+01  0.5909E+02
      6.340  0.6424E+01  0.5918E+02
      6.354  0.5409E+01  0.5925E+02
      6.367  0.4905E+01  0.5932E+02
      6.381  0.6475E+01  0.5940E+02
      6.394  0.6303E+01  0.5949E+02
      6.408  0.5362E+01  0.5956E+02
      6.421  0.5452E+01  0.5963E+02
      6.435  0.8323E+01  0.5975E+02
      6.448  0.6899E+01  0.5984E+02
      6.462  0.6468E+01  0.5993E+02
      6.475  0.7271E+01  0.6002E+02
      6.489  0.5871E+01  0.6010E+02
      6.502  0.6892E+01  0.6020E+02
      6.516  0.7312E+01  0.6030E+02
      6.529  0.6844E+01  0.6039E+02
      6.543  0.6109E+01  0.6047E+02
      6.556  0.6793E+01  0.6056E+02
      6.569  0.6062E+01  0.6064E+02
      6.583  0.6133E+01  0.6073E+02
      6.596  0.6970E+01  0.6082E+02
      6.610  0.6853E+01  0.6091E+02
      6.623  0.5928E+01  0.6099E+02
      6.637  0.6283E+01  0.6108E+02
      6.650  0.6688E+01  0.6117E+02
      6.664  0.5972E+01  0.6125E+02
      6.677  0.6558E+01  0.6134E+02
      6.691  0.7803E+01  0.6144E+02
      6.704  0.7579E+01  0.6154E+02
      6.718  0.5244E+01  0.6161E+02
      6.731  0.5543E+01  0.6169E+02
      6.745  0.6798E+01  0.6178E+02
      6.758  0.7259E+01  0.6188E+02
      6.772  0.8208E+01  0.6199E+02
      6.785  0.7172E+01  0.6208E+02
      6.799  0.6202E+01  0.6217E+02
      6.812  0.6000E+01  0.6225E+02
      6.826  0.5707E+01  0.6233E+02
      6.839  0.4596E+01  0.6239E+02
      6.852  0.4767E+01  0.6245E+02
      6.866  0.6881E+01  0.6254E+02
      6.879  0.6931E+01  0.6264E+02
      6.893  0.6015E+01  0.6272E+02
      6.906  0.6323E+01  0.6280E+02
      6.920  0.6913E+01  0.6290E+02
      6.933  0.4680E+01  0.6296E+02
      6.947  0.4498E+01  0.6302E+02
      6.960  0.5784E+01  0.6310E+02
      6.974  0.5264E+01  0.6317E+02
      6.987  0.5950E+01  0.6325E+02
      7.001  0.6789E+01  0.6334E+02
      7.014  0.5592E+01  0.6342E+02
      7.028  0.6055E+01  0.6350E+02
      7.041  0.6094E+01  0.6358E+02
      7.055  0.5815E+01  0.6366E+02
      7.068  0.7058E+01  0.6375E+02
      7.082  0.6362E+01  0.6384E+02
      7.095  0.7151E+01  0.6394E+02
      7.108  0.7076E+01  0.6403E+02
      7.122  0.6196E+01  0.6412E+02
      7.135  0.6506E+01  0.6420E+02
      7.149  0.5831E+01  0.6428E+02
      7.162  0.6370E+01  0.6437E+02
      7.176  0.6979E+01  0.6446E+02
      7.189  0.7220E+01  0.6456E+02
      7.203  0.6225E+01  0.6464E+02
      7.216  0.5848E+01  0.6472E+02
      7.230  0.6459E+01  0.6481E+02
      7.243  0.6568E+01  0.6490E+02
      7.257  0.7921E+01  0.6500E+02
      7.270  0.7353E+01  0.6510E+02
      7.284  0.6960E+01  0.6520E+02
      7.297  0.7099E+01  0.6529E+02
      7.311  0.6872E+01  0.6538E+02
      7.324  0.5623E+01  0.6546E+02
      7.338  0.5875E+01  0.6554E+02
      7.351  0.6924E+01  0.6563E+02
      7.364  0.7207E+01  0.6573E+02
      7.378  0.6986E+01  0.6582E+02
      7.391  0.6168E+01  0.6591E+02
      7.405  0.5950E+01  0.6599E+02
      7.418  0.5645E+01  0.6606E+02
      7.432  0.5221E+01  0.6613E+02
      7.445  0.5146E+01  0.6620E+02
      7.459  0.4651E+01  0.6627E+02
      7.472  0.5586E+01  0.6634E+02
      7.486  0.6464E+01  0.6643E+02
      7.499  0.5803E+01  0.6651E+02
      7.513  0.5867E+01  0.6659E+02
      7.526  0.7104E+01  0.6668E+02
      7.540  0.8501E+01  0.6680E+02
      7.553  0.7402E+01  0.6690E+02
      7.567  0.6012E+01  0.6698E+02
      7.580  0.5501E+01  0.6705E+02
      7.594  0.6029E+01  0.6713E+02
      7.607  0.5507E+01  0.6721E+02
      7.620  0.7599E+01  0.6731E+02
      7.634  0.7524E+01  0.6741E+02
      7.647  0.4782E+01  0.6747E+02
      7.661  0.6057E+01  0.6756E+02
      7.674  0.6320E+01  0.6764E+02
      7.688  0.5916E+01  0.6772E+02
      7.701  0.5057E+01  0.6779E+02
      7.715  0.4876E+01  0.6785E+02
      7.728  0.5278E+01  0.6793E+02
      7.742  0.5226E+01  0.6800E+02
      7.755  0.5040E+01  0.6806E+02
      7.769  0.6787E+01  0.6816E+02
      7.782  0.6902E+01  0.6825E+02
      7.796  0.5275E+01  0.6832E+02
      7.809  0.4083E+01  0.6837E+02
      7.823  0.3780E+01  0.6843E+02
      7.836  0.4257E+01  0.6848E+02
      7.850  0.4799E+01  0.6855E+02
      7.863  0.4129E+01  0.6860E+02
      7.876  0.4606E+01  0.6866E+02
      7.890  0.4431E+01  0.6872E+02
      7.903  0.3817E+01  0.6878E+02
      7.917  0.3563E+01  0.6882E+02
      7.930  0.4676E+01  0.6889E+02
      7.944  0.5421E+01  0.6896E+02
      7.957  0.5069E+01  0.6903E+02
      7.971  0.4274E+01  0.6909E+02
      7.984  0.4572E+01  0.6915E+02
      7.998  0.3843E+01  0.6920E+02
      8.011  0.4635E+01  0.6926E+02
      8.025  0.4290E+01  0.6932E+02
      8.038  0.4182E+01  0.6938E+02
      8.052  0.4567E+01  0.6944E+02
      8.065  0.5136E+01  0.6951E+02
      8.079  0.5199E+01  0.6958E+02
      8.092  0.5601E+01  0.6965E+02
      8.106  0.3480E+01  0.6970E+02
      8.119  0.3959E+01  0.6975E+02
      8.132  0.3836E+01  0.6980E+02
      8.146  0.4163E+01  0.6986E+02
      8.159  0.4787E+01  0.6992E+02
      8.173  0.6053E+01  0.7001E+02
      8.186  0.6241E+01  0.7009E+02
      8.200  0.5887E+01  0.7017E+02
      8.213  0.4668E+01  0.7023E+02
      8.227  0.5297E+01  0.7030E+02
      8.240  0.4130E+01  0.7036E+02
      8.254  0.4888E+01  0.7043E+02
      8.267  0.4475E+01  0.7049E+02
      8.281  0.3869E+01  0.7054E+02
      8.294  0.4866E+01  0.7060E+02
      8.308  0.5625E+01  0.7068E+02
      8.321  0.4591E+01  0.7074E+02
      8.335  0.3368E+01  0.7079E+02
      8.348  0.5069E+01  0.7085E+02
      8.362  0.7357E+01  0.7095E+02
      8.375  0.6214E+01  0.7104E+02
      8.388  0.5310E+01  0.7111E+02
      8.402  0.3812E+01  0.7116E+02
      8.415  0.5236E+01  0.7123E+02
      8.429  0.5718E+01  0.7131E+02
      8.442  0.4595E+01  0.7137E+02
      8.456  0.4937E+01  0.7144E+02
      8.469  0.4972E+01  0.7150E+02
      8.483  0.5536E+01  0.7158E+02
      8.496  0.5461E+01  0.7165E+02
      8.510  0.5955E+01  0.7173E+02
      8.523  0.5436E+01  0.7181E+02
      8.537  0.5003E+01  0.7187E+02
      8.550  0.5738E+01  0.7195E+02
      8.564  0.4848E+01  0.7202E+02
      8.577  0.5577E+01  0.7209E+02
      8.591  0.5273E+01  0.7216E+02
      8.604  0.4497E+01  0.7222E+02
      8.618  0.5419E+01  0.7230E+02
      8.631  0.7093E+01  0.7239E+02
      8.644  0.7279E+01  0.7249E+02
      8.658  0.6506E+01  0.7258E+02
      8.671  0.6022E+01  0.7266E+02
      8.685  0.6028E+01  0.7274E+02
      8.698  0.4811E+01  0.7280E+02
      8.712  0.6293E+01  0.7289E+02
      8.725  0.8522E+01  0.7300E+02
      8.739  0.7587E+01  0.7311E+02
      8.752  0.6450E+01  0.7319E+02
      8.766  0.6455E+01  0.7328E+02
      8.779  0.7773E+01  0.7338E+02
      8.793  0.6511E+01  0.7347E+02
      8.806  0.6016E+01  0.7355E+02
      8.820  0.6799E+01  0.7364E+02
      8.833  0.5601E+01  0.7372E+02
      8.847  0.7140E+01  0.7382E+02
      8.860  0.7200E+01  0.7391E+02
      8.874  0.5896E+01  0.7399E+02
      8.887  0.5246E+01  0.7406E+02
      8.900  0.7448E+01  0.7416E+02
      8.914  0.7486E+01  0.7426E+02
      8.927  0.5821E+01  0.7434E+02
      8.941  0.6361E+01  0.7443E+02
      8.954  0.8728E+01  0.7455E+02
      8.968  0.7407E+01  0.7465E+02
      8.981  0.6135E+01  0.7473E+02
      8.995  0.6177E+01  0.7481E+02
      9.008  0.7791E+01  0.7492E+02
      9.022  0.7980E+01  0.7502E+02
      9.035  0.6186E+01  0.7511E+02
      9.049  0.6923E+01  0.7520E+02
      9.062  0.7685E+01  0.7530E+02
      9.076  0.9352E+01  0.7543E+02
      9.089  0.8471E+01  0.7554E+02
      9.103  0.8571E+01  0.7566E+02
      9.116  0.1041E+02  0.7580E+02
      9.130  0.1076E+02  0.7595E+02
      9.143  0.1083E+02  0.7609E+02
      9.156  0.1046E+02  0.7623E+02
      9.170  0.1101E+02  0.7638E+02
      9.183  0.1249E+02  0.7655E+02
      9.197  0.9269E+01  0.7667E+02
      9.210  0.8068E+01  0.7678E+02
      9.224  0.7681E+01  0.7689E+02
      9.237  0.1007E+02  0.7702E+02
      9.251  0.1001E+02  0.7716E+02
      9.264  0.1164E+02  0.7731E+02
      9.278  0.9994E+01  0.7745E+02
      9.291  0.8886E+01  0.7757E+02
      9.305  0.1035E+02  0.7771E+02
      9.318  0.8290E+01  0.7782E+02
      9.332  0.7385E+01  0.7792E+02
      9.345  0.7171E+01  0.7802E+02
      9.359  0.8791E+01  0.7813E+02
      9.372  0.8555E+01  0.7825E+02
      9.386  0.7290E+01  0.7835E+02
      9.399  0.8208E+01  0.7846E+02
      9.413  0.8402E+01  0.7857E+02
      9.426  0.8029E+01  0.7868E+02
      9.439  0.9350E+01  0.7881E+02
      9.453  0.7463E+01  0.7891E+02
      9.466  0.9831E+01  0.7904E+02
      9.480  0.9646E+01  0.7917E+02
      9.493  0.8597E+01  0.7928E+02
      9.507  0.9329E+01  0.7941E+02
      9.520  0.7775E+01  0.7951E+02
      9.534  0.7797E+01  0.7962E+02
      9.547  0.1024E+02  0.7976E+02
      9.561  0.7698E+01  0.7986E+02
      9.574  0.6605E+01  0.7995E+02
      9.588  0.6852E+01  0.8004E+02
      9.601  0.7203E+01  0.8014E+02
      9.615  0.8766E+01  0.8026E+02
      9.628  0.8685E+01  0.8037E+02
      9.642  0.7879E+01  0.8048E+02
      9.655  0.7391E+01  0.8058E+02
      9.669  0.9805E+01  0.8071E+02
      9.682  0.1039E+02  0.8085E+02
      9.695  0.8157E+01  0.8096E+02
      9.709  0.7790E+01  0.8107E+02
      9.722  0.8759E+01  0.8119E+02
      9.736  0.1206E+02  0.8135E+02
      9.749  0.1332E+02  0.8153E+02
      9.763  0.1105E+02  0.8168E+02
      9.776  0.1051E+02  0.8182E+02
      9.790  0.1015E+02  0.8195E+02
      9.803  0.9280E+01  0.8208E+02
      9.817  0.1071E+02  0.8222E+02
      9.830  0.1337E+02  0.8240E+02
      9.844  0.9984E+01  0.8254E+02
      9.857  0.9356E+01  0.8266E+02
      9.871  0.1137E+02  0.8282E+02
      9.884  0.1218E+02  0.8298E+02
      9.898  0.1055E+02  0.8312E+02
      9.911  0.8238E+01  0.8324E+02
      9.925  0.9217E+01  0.8336E+02
      9.938  0.7971E+01  0.8347E+02
      9.951  0.8293E+01  0.8358E+02
      9.965  0.8898E+01  0.8370E+02
      9.978  0.7682E+01  0.8380E+02
      9.992  0.8681E+01  0.8392E+02
     10.005  0.8087E+01  0.8403E+02
     10.019  0.7662E+01  0.8413E+02
     10.032  0.8069E+01  0.8424E+02
     10.046  0.9568E+01  0.8437E+02
     10.059  0.9650E+01  0.8450E+02
     10.073  0.9314E+01  0.8462E+02
     10.086  0.8666E+01  0.8474E+02
     10.100  0.9439E+01  0.8487E+02
     10.113  0.8699E+01  0.8499E+02
     10.127  0.1083E+02  0.8513E+02
     10.140  0.1091E+02  0.8528E+02
     10.154  0.8303E+01  0.8539E+02
     10.167  0.9347E+01  0.8552E+02
     10.181  0.9790E+01  0.8565E+02
     10.194  0.9087E+01  0.8577E+02
     10.207  0.9408E+01  0.8590E+02
     10.221  0.1119E+02  0.8605E+02
     10.234  0.1089E+02  0.8619E+02
     10.248  0.9323E+01  0.8632E+02
     10.261  0.1042E+02  0.8646E+02
     10.275  0.9139E+01  0.8658E+02
     10.288  0.1071E+02  0.8673E+02
     10.302  0.1176E+02  0.8689E+02
     10.315  0.1037E+02  0.8703E+02
     10.329  0.8137E+01  0.8714E+02
     10.342  0.9357E+01  0.8726E+02
     10.356  0.1093E+02  0.8741E+02
     10.369  0.9190E+01  0.8753E+02
     10.383  0.8389E+01  0.8765E+02
     10.396  0.9068E+01  0.8777E+02
     10.410  0.9326E+01  0.8789E+02
     10.423  0.1081E+02  0.8804E+02
     10.437  0.9860E+01  0.8817E+02
     10.450  0.8328E+01  0.8828E+02
     10.463  0.9966E+01  0.8842E+02
     10.477  0.9993E+01  0.8855E+02
     10.490  0.9218E+01  0.8868E+02
     10.504  0.1104E+02  0.8883E+02
     10.517  0.1086E+02  0.8897E+02
     10.531  0.1031E+02  0.8911E+02
     10.544  0.9004E+01  0.8923E+02
     10.558  0.8449E+01  0.8935E+02
     10.571  0.9600E+01  0.8948E+02
     10.585  0.8663E+01  0.8959E+02
     10.598  0.6803E+01  0.8968E+02
     10.612  0.6763E+01  0.8978E+02
     10.625  0.8184E+01  0.8989E+02
     10.639  0.8441E+01  0.9000E+02
     10.652  0.8249E+01  0.9011E+02
     10.666  0.7790E+01  0.9022E+02
     10.679  0.5835E+01  0.9029E+02
     10.693  0.6586E+01  0.9038E+02
     10.706  0.7649E+01  0.9049E+02
     10.719  0.6236E+01  0.9057E+02
     10.733  0.6795E+01  0.9066E+02
     10.746  0.6981E+01  0.9076E+02
     10.760  0.6329E+01  0.9084E+02
     10.773  0.5999E+01  0.9092E+02
     10.787  0.4895E+01  0.9099E+02
     10.800  0.5283E+01  0.9106E+02
     10.814  0.5825E+01  0.9114E+02
     10.827  0.5007E+01  0.9121E+02
     10.841  0.5015E+01  0.9127E+02
     10.854  0.6806E+01  0.9136E+02
     10.868  0.8126E+01  0.9147E+02
     10.881  0.5807E+01  0.9155E+02
     10.895  0.8321E+01  0.9166E+02
     10.908  0.7623E+01  0.9177E+02
     10.922  0.6435E+01  0.9185E+02
     10.935  0.7737E+01  0.9196E+02
     10.949  0.6853E+01  0.9205E+02
     10.962  0.5153E+01  0.9212E+02
     10.975  0.5693E+01  0.9220E+02
     10.989  0.6629E+01  0.9229E+02
     11.002  0.6529E+01  0.9237E+02
     11.016  0.7536E+01  0.9248E+02
     11.029  0.7482E+01  0.9258E+02
     11.043  0.6421E+01  0.9266E+02
     11.056  0.5474E+01  0.9274E+02
     11.070  0.6862E+01  0.9283E+02
     11.083  0.7691E+01  0.9293E+02
     11.097  0.7799E+01  0.9304E+02
     11.110  0.8692E+01  0.9315E+02
     11.124  0.9053E+01  0.9328E+02
     11.137  0.1065E+02  0.9342E+02
     11.151  0.9541E+01  0.9355E+02
     11.164  0.1060E+02  0.9369E+02
     11.178  0.1158E+02  0.9385E+02
     11.191  0.1229E+02  0.9401E+02
     11.205  0.1026E+02  0.9415E+02
     11.218  0.8285E+01  0.9426E+02
     11.231  0.8795E+01  0.9438E+02
     11.245  0.9151E+01  0.9450E+02
     11.258  0.8483E+01  0.9462E+02
     11.272  0.7854E+01  0.9472E+02
     11.285  0.7539E+01  0.9483E+02
     11.299  0.6853E+01  0.9492E+02
     11.312  0.7723E+01  0.9502E+02
     11.326  0.7829E+01  0.9513E+02
     11.339  0.8722E+01  0.9525E+02
     11.353  0.1120E+02  0.9540E+02
     11.366  0.1003E+02  0.9553E+02
     11.380  0.1007E+02  0.9567E+02
     11.393  0.9894E+01  0.9580E+02
     11.407  0.1111E+02  0.9595E+02
     11.420  0.8676E+01  0.9607E+02
     11.434  0.8711E+01  0.9618E+02
     11.447  0.8443E+01  0.9630E+02
     11.461  0.8947E+01  0.9642E+02
     11.474  0.8861E+01  0.9654E+02
     11.487  0.8303E+01  0.9665E+02
     11.501  0.9259E+01  0.9678E+02
     11.514  0.8160E+01  0.9688E+02
     11.528  0.5819E+01  0.9696E+02
     11.541  0.5748E+01  0.9704E+02
     11.555  0.7986E+01  0.9715E+02
     11.568  0.8675E+01  0.9727E+02
     11.582  0.7694E+01  0.9737E+02
     11.595  0.6782E+01  0.9746E+02
     11.609  0.5593E+01  0.9754E+02
     11.622  0.6164E+01  0.9762E+02
     11.636  0.7630E+01  0.9772E+02
     11.649  0.6744E+01  0.9781E+02
     11.663  0.5797E+01  0.9789E+02
     11.676  0.7226E+01  0.9799E+02
     11.690  0.7608E+01  0.9809E+02
     11.703  0.5717E+01  0.9817E+02
     11.717  0.5133E+01  0.9824E+02
     11.730  0.6984E+01  0.9833E+02
     11.743  0.6210E+01  0.9841E+02
     11.757  0.6227E+01  0.9850E+02
     11.770  0.6969E+01  0.9859E+02
     11.784  0.7134E+01  0.9869E+02
     11.797  0.6888E+01  0.9878E+02
     11.811  0.6729E+01  0.9887E+02
     11.824  0.8404E+01  0.9898E+02
     11.838  0.7635E+01  0.9909E+02
     11.851  0.4839E+01  0.9915E+02
     11.865  0.5424E+01  0.9923E+02
     11.878  0.6115E+01  0.9931E+02
     11.892  0.7409E+01  0.9941E+02
     11.905  0.8671E+01  0.9953E+02
     11.919  0.7489E+01  0.9963E+02
     11.932  0.7121E+01  0.9972E+02
     11.946  0.6748E+01  0.9981E+02
     11.959  0.7183E+01  0.9991E+02
     11.973  0.7110E+01  0.1000E+03
     11.986  0.5905E+01  0.1001E+03
     12.000  0.6183E+01  0.1002E+03
     12.013  0.7456E+01  0.1003E+03
     12.026  0.6705E+01  0.1004E+03
     12.040  0.7796E+01  0.1005E+03
     12.053  0.8189E+01  0.1006E+03
     12.067  0.7556E+01  0.1007E+03
     12.080  0.8724E+01  0.1008E+03
     12.094  0.9285E+01  0.1009E+03
     12.107  0.8447E+01  0.1010E+03
     12.121  0.7191E+01  0.1011E+03
     12.134  0.8554E+01  0.1012E+03
     12.148  0.1058E+02  0.1014E+03
     12.161  0.8511E+01  0.1015E+03
     12.175  0.7805E+01  0.1016E+03
     12.188  0.9985E+01  0.1017E+03
     12.202  0.1079E+02  0.1019E+03
     12.215  0.1049E+02  0.1020E+03
     12.229  0.1031E+02  0.1022E+03
     12.242  0.1220E+02  0.1023E+03
     12.256  0.1614E+02  0.1025E+03
     12.269  0.1744E+02  0.1028E+03
     12.282  0.1746E+02  0.1030E+03
     12.296  0.1661E+02  0.1032E+03
     12.309  0.1725E+02  0.1035E+03
     12.323  0.1348E+02  0.1037E+03
     12.336  0.1290E+02  0.1038E+03
     12.350  0.1369E+02  0.1040E+03
     12.363  0.1133E+02  0.1042E+03
     12.377  0.1067E+02  0.1043E+03
     12.390  0.1081E+02  0.1045E+03
     12.404  0.1046E+02  0.1046E+03
     12.417  0.1067E+02  0.1047E+03
     12.431  0.1013E+02  0.1049E+03
     12.444  0.9857E+01  0.1050E+03
     12.458  0.9224E+01  0.1051E+03
     12.471  0.1057E+02  0.1053E+03
     12.485  0.1050E+02  0.1054E+03
     12.498  0.8602E+01  0.1055E+03
     12.512  0.8207E+01  0.1056E+03
     12.525  0.6392E+01  0.1057E+03
     12.538  0.4753E+01  0.1058E+03
     12.552  0.6578E+01  0.1059E+03
     12.565  0.8017E+01  0.1060E+03
     12.579  0.8130E+01  0.1061E+03
     12.592  0.8220E+01  0.1062E+03
     12.606  0.8130E+01  0.1063E+03
     12.619  0.6135E+01  0.1064E+03
     12.633  0.6913E+01  0.1065E+03
     12.646  0.8491E+01  0.1066E+03
     12.660  0.9939E+01  0.1067E+03
     12.673  0.6966E+01  0.1068E+03
     12.687  0.6790E+01  0.1069E+03
     12.700  0.7225E+01  0.1070E+03
     12.714  0.8884E+01  0.1071E+03
     12.727  0.8673E+01  0.1073E+03
     12.741  0.7304E+01  0.1074E+03
     12.754  0.7879E+01  0.1075E+03
     12.768  0.7763E+01  0.1076E+03
     12.781  0.7411E+01  0.1077E+03
     12.794  0.7162E+01  0.1078E+03
     12.808  0.6805E+01  0.1079E+03
     12.821  0.7719E+01  0.1080E+03
     12.835  0.8522E+01  0.1081E+03
     12.848  0.7092E+01  0.1082E+03
     12.862  0.7144E+01  0.1083E+03
     12.875  0.6035E+01  0.1084E+03
     12.889  0.6495E+01  0.1084E+03
     12.902  0.6681E+01  0.1085E+03
     12.916  0.6926E+01  0.1086E+03
     12.929  0.5099E+01  0.1087E+03
     12.943  0.4568E+01  0.1088E+03
     12.956  0.5142E+01  0.1088E+03
     12.970  0.7635E+01  0.1089E+03
     12.983  0.8817E+01  0.1090E+03
     12.997  0.7451E+01  0.1091E+03
     13.010  0.7257E+01  0.1092E+03
     13.024  0.6402E+01  0.1093E+03
     13.037  0.5951E+01  0.1094E+03
     13.050  0.5893E+01  0.1095E+03
     13.064  0.6430E+01  0.1096E+03
     13.077  0.8281E+01  0.1097E+03
     13.091  0.7537E+01  0.1098E+03
     13.104  0.6744E+01  0.1099E+03
     13.118  0.7116E+01  0.1100E+03
     13.131  0.8483E+01  0.1101E+03
     13.145  0.1006E+02  0.1102E+03
     13.158  0.8103E+01  0.1103E+03
     13.172  0.6547E+01  0.1104E+03
     13.185  0.8405E+01  0.1105E+03
     13.199  0.7536E+01  0.1106E+03
     13.212  0.7843E+01  0.1107E+03
     13.226  0.8341E+01  0.1109E+03
     13.239  0.8238E+01  0.1110E+03
     13.253  0.7531E+01  0.1111E+03
     13.266  0.8738E+01  0.1112E+03
     13.280  0.7476E+01  0.1113E+03
     13.293  0.7145E+01  0.1114E+03
     13.306  0.8670E+01  0.1115E+03
     13.320  0.9893E+01  0.1116E+03
     13.333  0.8588E+01  0.1118E+03
     13.347  0.9318E+01  0.1119E+03
     13.360  0.8545E+01  0.1120E+03
     13.374  0.1093E+02  0.1121E+03
     13.387  0.1146E+02  0.1123E+03
     13.401  0.1003E+02  0.1124E+03
     13.414  0.1047E+02  0.1126E+03
     13.428  0.9056E+01  0.1127E+03
     13.441  0.7131E+01  0.1128E+03
     13.455  0.8401E+01  0.1129E+03
     13.468  0.9287E+01  0.1130E+03
     13.482  0.9251E+01  0.1132E+03
     13.495  0.9434E+01  0.1133E+03
     13.509  0.9301E+01  0.1134E+03
     13.522  0.8704E+01  0.1135E+03
     13.536  0.1073E+02  0.1137E+03
     13.549  0.1046E+02  0.1138E+03
     13.562  0.9424E+01  0.1139E+03
     13.576  0.1084E+02  0.1141E+03
     13.589  0.9774E+01  0.1142E+03
     13.603  0.9398E+01  0.1143E+03
     13.616  0.9493E+01  0.1145E+03
     13.630  0.9250E+01  0.1146E+03
     13.643  0.1231E+02  0.1148E+03
     13.657  0.1147E+02  0.1149E+03
     13.670  0.1052E+02  0.1151E+03
     13.684  0.1021E+02  0.1152E+03
     13.697  0.9095E+01  0.1153E+03
     13.711  0.8319E+01  0.1154E+03
     13.724  0.8647E+01  0.1155E+03
     13.738  0.8243E+01  0.1157E+03
     13.751  0.7623E+01  0.1158E+03
     13.765  0.6826E+01  0.1158E+03
     13.778  0.8859E+01  0.1160E+03
     13.792  0.9078E+01  0.1161E+03
     13.805  0.1118E+02  0.1162E+03
     13.818  0.1106E+02  0.1164E+03
     13.832  0.8764E+01  0.1165E+03
     13.845  0.8000E+01  0.1166E+03
     13.859  0.8133E+01  0.1167E+03
     13.872  0.8539E+01  0.1168E+03
     13.886  0.9054E+01  0.1170E+03
     13.899  0.1074E+02  0.1171E+03
     13.913  0.9497E+01  0.1172E+03
     13.926  0.7508E+01  0.1173E+03
     13.940  0.7464E+01  0.1174E+03
     13.953  0.1019E+02  0.1176E+03
     13.967  0.9163E+01  0.1177E+03
     13.980  0.9563E+01  0.1178E+03
     13.994  0.9711E+01  0.1180E+03
     14.007  0.9504E+01  0.1181E+03
     14.021  0.8362E+01  0.1182E+03
     14.034  0.7199E+01  0.1183E+03
     14.048  0.8074E+01  0.1184E+03
     14.061  0.9391E+01  0.1185E+03
     14.074  0.8651E+01  0.1186E+03
     14.088  0.8195E+01  0.1188E+03
     14.101  0.6927E+01  0.1188E+03
     14.115  0.6931E+01  0.1189E+03
     14.128  0.1016E+02  0.1191E+03
     14.142  0.1111E+02  0.1192E+03
     14.155  0.1205E+02  0.1194E+03
     14.169  0.1307E+02  0.1196E+03
     14.182  0.1556E+02  0.1198E+03
     14.196  0.1275E+02  0.1199E+03
     14.209  0.1128E+02  0.1201E+03
     14.223  0.9131E+01  0.1202E+03
     14.236  0.1077E+02  0.1204E+03
     14.250  0.1141E+02  0.1205E+03
     14.263  0.9353E+01  0.1206E+03
     14.277  0.1106E+02  0.1208E+03
     14.290  0.9866E+01  0.1209E+03
     14.304  0.9213E+01  0.1211E+03
     14.317  0.8473E+01  0.1212E+03
     14.330  0.9180E+01  0.1213E+03
     14.344  0.9494E+01  0.1214E+03
     14.357  0.7239E+01  0.1215E+03
     14.371  0.7055E+01  0.1216E+03
     14.384  0.9168E+01  0.1217E+03
     14.398  0.9841E+01  0.1219E+03
     14.411  0.1150E+02  0.1220E+03
     14.425  0.1081E+02  0.1222E+03
     14.438  0.8652E+01  0.1223E+03
     14.452  0.8412E+01  0.1224E+03
     14.465  0.7262E+01  0.1225E+03
     14.479  0.8433E+01  0.1226E+03
     14.492  0.9551E+01  0.1227E+03
     14.506  0.9791E+01  0.1229E+03
     14.519  0.1074E+02  0.1230E+03
     14.533  0.9861E+01  0.1231E+03
     14.546  0.7867E+01  0.1233E+03
     14.560  0.7273E+01  0.1234E+03
     14.573  0.8105E+01  0.1235E+03
     14.587  0.7790E+01  0.1236E+03
     14.600  0.8499E+01  0.1237E+03
     14.613  0.9285E+01  0.1238E+03
     14.627  0.9900E+01  0.1239E+03
     14.640  0.1104E+02  0.1241E+03
     14.654  0.8638E+01  0.1242E+03
     14.667  0.7528E+01  0.1243E+03
     14.681  0.8553E+01  0.1244E+03
     14.694  0.1176E+02  0.1246E+03
     14.708  0.1270E+02  0.1248E+03
     14.721  0.1187E+02  0.1249E+03
     14.735  0.1214E+02  0.1251E+03
     14.748  0.1013E+02  0.1252E+03
     14.762  0.1011E+02  0.1253E+03
     14.775  0.1060E+02  0.1255E+03
     14.789  0.1002E+02  0.1256E+03
     14.802  0.1023E+02  0.1258E+03
     14.816  0.1270E+02  0.1259E+03
     14.829  0.1124E+02  0.1261E+03
     14.843  0.8653E+01  0.1262E+03
     14.856  0.8358E+01  0.1263E+03
     14.869  0.8894E+01  0.1264E+03
     14.883  0.1017E+02  0.1266E+03
     14.896  0.1059E+02  0.1267E+03
     14.910  0.1138E+02  0.1269E+03
     14.923  0.1126E+02  0.1270E+03
     14.937  0.8839E+01  0.1271E+03
     14.950  0.8357E+01  0.1273E+03
     14.964  0.7638E+01  0.1274E+03
     14.977  0.1002E+02  0.1275E+03
     14.991  0.1161E+02  0.1276E+03
     15.004  0.1184E+02  0.1278E+03
     15.018  0.1124E+02  0.1280E+03
     15.031  0.1096E+02  0.1281E+03
     15.045  0.1082E+02  0.1283E+03
     15.058  0.1185E+02  0.1284E+03
     15.072  0.1063E+02  0.1286E+03
     15.085  0.9473E+01  0.1287E+03
     15.099  0.1153E+02  0.1288E+03
     15.112  0.1279E+02  0.1290E+03
     15.125  0.1352E+02  0.1292E+03
     15.139  0.1354E+02  0.1294E+03
     15.152  0.1365E+02  0.1296E+03
     15.166  0.1349E+02  0.1297E+03
     15.179  0.1223E+02  0.1299E+03
     15.193  0.1086E+02  0.1301E+03
     15.206  0.1045E+02  0.1302E+03
     15.220  0.1040E+02  0.1303E+03
     15.233  0.1077E+02  0.1305E+03
     15.247  0.1237E+02  0.1306E+03
     15.260  0.1160E+02  0.1308E+03
     15.274  0.1205E+02  0.1310E+03
     15.287  0.1153E+02  0.1311E+03
     15.301  0.1008E+02  0.1313E+03
     15.314  0.9408E+01  0.1314E+03
     15.328  0.1049E+02  0.1315E+03
     15.341  0.1116E+02  0.1317E+03
     15.355  0.1302E+02  0.1318E+03
     15.368  0.1046E+02  0.1320E+03
     15.381  0.8112E+01  0.1321E+03
     15.395  0.9893E+01  0.1322E+03
     15.408  0.1247E+02  0.1324E+03
     15.422  0.1331E+02  0.1326E+03
     15.435  0.1117E+02  0.1327E+03
     15.449  0.1016E+02  0.1329E+03
     15.462  0.1210E+02  0.1330E+03
     15.476  0.1148E+02  0.1332E+03
     15.489  0.9529E+01  0.1333E+03
     15.503  0.9364E+01  0.1334E+03
     15.516  0.8173E+01  0.1335E+03
     15.530  0.9648E+01  0.1337E+03
     15.543  0.9808E+01  0.1338E+03
     15.557  0.1091E+02  0.1340E+03
     15.570  0.1012E+02  0.1341E+03
     15.584  0.9141E+01  0.1342E+03
     15.597  0.1161E+02  0.1344E+03
     15.611  0.1046E+02  0.1345E+03
     15.624  0.1007E+02  0.1346E+03
     15.637  0.1536E+02  0.1349E+03
     15.651  0.1129E+02  0.1350E+03
     15.664  0.9460E+01  0.1351E+03
     15.678  0.1144E+02  0.1353E+03
     15.691  0.1218E+02  0.1355E+03
     15.705  0.1060E+02  0.1356E+03
     15.718  0.1138E+02  0.1358E+03
     15.732  0.1366E+02  0.1359E+03
     15.745  0.1373E+02  0.1361E+03
     15.759  0.1166E+02  0.1363E+03
     15.772  0.1139E+02  0.1364E+03
     15.786  0.9841E+01  0.1366E+03
     15.799  0.9218E+01  0.1367E+03
     15.813  0.1198E+02  0.1368E+03
     15.826  0.1497E+02  0.1370E+03
     15.840  0.1519E+02  0.1373E+03
     15.853  0.9860E+01  0.1374E+03
     15.867  0.9343E+01  0.1375E+03
     15.880  0.1018E+02  0.1377E+03
     15.893  0.1049E+02  0.1378E+03
     15.907  0.8395E+01  0.1379E+03
     15.920  0.7898E+01  0.1380E+03
     15.934  0.9685E+01  0.1381E+03
     15.947  0.9139E+01  0.1383E+03
     15.961  0.1053E+02  0.1384E+03
     15.974  0.1281E+02  0.1386E+03
     15.988  0.1373E+02  0.1388E+03
     16.001  0.1192E+02  0.1389E+03
     16.015  0.1026E+02  0.1391E+03
     16.028  0.1262E+02  0.1392E+03
     16.042  0.1375E+02  0.1394E+03
     16.055  0.1201E+02  0.1396E+03
     16.069  0.1080E+02  0.1397E+03
     16.082  0.1191E+02  0.1399E+03
     16.096  0.1540E+02  0.1401E+03
     16.109  0.1576E+02  0.1403E+03
     16.123  0.1286E+02  0.1405E+03
     16.136  0.1216E+02  0.1406E+03
     16.149  0.1199E+02  0.1408E+03
     16.163  0.1066E+02  0.1409E+03
     16.176  0.1050E+02  0.1411E+03
     16.190  0.1076E+02  0.1412E+03
     16.203  0.1101E+02  0.1414E+03
     16.217  0.1159E+02  0.1415E+03
     16.230  0.1102E+02  0.1417E+03
     16.244  0.1024E+02  0.1418E+03
     16.257  0.1023E+02  0.1420E+03
     16.271  0.9055E+01  0.1421E+03
     16.284  0.8635E+01  0.1422E+03
     16.298  0.9699E+01  0.1423E+03
     16.311  0.1017E+02  0.1425E+03
     16.325  0.1076E+02  0.1426E+03
     16.338  0.1088E+02  0.1428E+03
     16.352  0.1068E+02  0.1429E+03
     16.365  0.1027E+02  0.1430E+03
     16.379  0.1076E+02  0.1432E+03
     16.392  0.1104E+02  0.1433E+03
     16.405  0.1130E+02  0.1435E+03
     16.419  0.1021E+02  0.1436E+03
     16.432  0.9960E+01  0.1438E+03
     16.446  0.9707E+01  0.1439E+03
     16.459  0.1131E+02  0.1440E+03
     16.473  0.1126E+02  0.1442E+03
     16.486  0.1167E+02  0.1444E+03
     16.500  0.1097E+02  0.1445E+03
     16.513  0.9280E+01  0.1446E+03
     16.527  0.1002E+02  0.1448E+03
     16.540  0.1045E+02  0.1449E+03
     16.554  0.1114E+02  0.1451E+03
     16.567  0.1006E+02  0.1452E+03
     16.581  0.1093E+02  0.1453E+03
     16.594  0.1213E+02  0.1455E+03
     16.608  0.1243E+02  0.1457E+03
     16.621  0.1226E+02  0.1458E+03
     16.635  0.1147E+02  0.1460E+03
     16.648  0.8471E+01  0.1461E+03
     16.661  0.1067E+02  0.1462E+03
     16.675  0.1064E+02  0.1464E+03
     16.688  0.1015E+02  0.1465E+03
     16.702  0.9072E+01  0.1466E+03
     16.715  0.8789E+01  0.1468E+03
     16.729  0.1034E+02  0.1469E+03
     16.742  0.1012E+02  0.1470E+03
     16.756  0.1279E+02  0.1472E+03
     16.769  0.1443E+02  0.1474E+03
     16.783  0.1288E+02  0.1476E+03
     16.796  0.1168E+02  0.1477E+03
     16.810  0.1226E+02  0.1479E+03
     16.823  0.1425E+02  0.1481E+03
     16.837  0.1256E+02  0.1483E+03
     16.850  0.1276E+02  0.1484E+03
     16.864  0.1445E+02  0.1486E+03
     16.877  0.1431E+02  0.1488E+03
     16.891  0.1257E+02  0.1490E+03
     16.904  0.1389E+02  0.1492E+03
     16.917  0.1239E+02  0.1493E+03
     16.931  0.9818E+01  0.1495E+03
     16.944  0.8424E+01  0.1496E+03
     16.958  0.9597E+01  0.1497E+03
     16.971  0.9616E+01  0.1499E+03
     16.985  0.7471E+01  0.1500E+03
     16.998  0.8741E+01  0.1501E+03
     17.012  0.8251E+01  0.1502E+03
     17.025  0.7794E+01  0.1503E+03
     17.039  0.9313E+01  0.1504E+03
     17.052  0.9268E+01  0.1505E+03
     17.066  0.1080E+02  0.1507E+03
     17.079  0.1248E+02  0.1509E+03
     17.093  0.1183E+02  0.1510E+03
     17.106  0.1201E+02  0.1512E+03
     17.120  0.1210E+02  0.1513E+03
     17.133  0.1109E+02  0.1515E+03
     17.147  0.1027E+02  0.1516E+03
     17.160  0.1204E+02  0.1518E+03
     17.174  0.1163E+02  0.1519E+03
     17.187  0.9638E+01  0.1521E+03
     17.200  0.8214E+01  0.1522E+03
     17.214  0.9210E+01  0.1523E+03
     17.227  0.1115E+02  0.1525E+03
     17.241  0.8832E+01  0.1526E+03
     17.254  0.1068E+02  0.1527E+03
     17.268  0.1106E+02  0.1529E+03
     17.281  0.1162E+02  0.1530E+03
     17.295  0.1507E+02  0.1532E+03
     17.308  0.1494E+02  0.1534E+03
     17.322  0.1271E+02  0.1536E+03
     17.335  0.1132E+02  0.1538E+03
     17.349  0.1030E+02  0.1539E+03
     17.362  0.1266E+02  0.1541E+03
     17.376  0.9505E+01  0.1542E+03
     17.389  0.9443E+01  0.1543E+03
     17.403  0.1399E+02  0.1545E+03
     17.416  0.1265E+02  0.1547E+03
     17.430  0.1113E+02  0.1548E+03
     17.443  0.1241E+02  0.1550E+03
     17.456  0.1127E+02  0.1551E+03
     17.470  0.9572E+01  0.1553E+03
     17.483  0.1009E+02  0.1554E+03
     17.497  0.1053E+02  0.1556E+03
     17.510  0.1350E+02  0.1557E+03
     17.524  0.1203E+02  0.1559E+03
     17.537  0.1177E+02  0.1561E+03
     17.551  0.1257E+02  0.1562E+03
     17.564  0.1130E+02  0.1564E+03
     17.578  0.1046E+02  0.1565E+03
     17.591  0.1199E+02  0.1567E+03
     17.605  0.1014E+02  0.1568E+03
     17.618  0.1118E+02  0.1570E+03
     17.632  0.1191E+02  0.1571E+03
     17.645  0.1166E+02  0.1573E+03
     17.659  0.1345E+02  0.1575E+03
     17.672  0.1434E+02  0.1577E+03
     17.686  0.1449E+02  0.1579E+03
     17.699  0.1256E+02  0.1580E+03
     17.712  0.1147E+02  0.1582E+03
     17.726  0.1038E+02  0.1583E+03
     17.739  0.9774E+01  0.1584E+03
     17.753  0.1051E+02  0.1586E+03
     17.766  0.1095E+02  0.1587E+03
     17.780  0.1251E+02  0.1589E+03
     17.793  0.1234E+02  0.1591E+03
     17.807  0.1170E+02  0.1592E+03
     17.820  0.1061E+02  0.1594E+03
     17.834  0.1271E+02  0.1595E+03
     17.847  0.1514E+02  0.1597E+03
     17.861  0.1438E+02  0.1599E+03
     17.874  0.1007E+02  0.1601E+03
     17.888  0.9480E+01  0.1602E+03
     17.901  0.1146E+02  0.1604E+03
     17.915  0.1284E+02  0.1605E+03
     17.928  0.1211E+02  0.1607E+03
     17.942  0.1080E+02  0.1608E+03
     17.955  0.1293E+02  0.1610E+03
     17.968  0.1254E+02  0.1612E+03
     17.982  0.9917E+01  0.1613E+03
     17.995  0.1181E+02  0.1615E+03
     18.009  0.1107E+02  0.1616E+03
     18.022  0.1093E+02  0.1618E+03
     18.036  0.1181E+02  0.1619E+03
     18.049  0.1317E+02  0.1621E+03
     18.063  0.1111E+02  0.1623E+03
     18.076  0.1131E+02  0.1624E+03
     18.090  0.1149E+02  0.1626E+03
     18.103  0.1304E+02  0.1627E+03
     18.117  0.1424E+02  0.1629E+03
     18.130  0.1213E+02  0.1631E+03
     18.144  0.1310E+02  0.1633E+03
     18.157  0.1109E+02  0.1634E+03
     18.171  0.7701E+01  0.1635E+03
     18.184  0.9851E+01  0.1637E+03
     18.198  0.1107E+02  0.1638E+03
     18.211  0.9102E+01  0.1639E+03
     18.224  0.9691E+01  0.1641E+03
     18.238  0.1044E+02  0.1642E+03
     18.251  0.8511E+01  0.1643E+03
     18.265  0.7446E+01  0.1644E+03
     18.278  0.8293E+01  0.1645E+03
     18.292  0.8715E+01  0.1646E+03
     18.305  0.8603E+01  0.1648E+03
     18.319  0.1039E+02  0.1649E+03
     18.332  0.1256E+02  0.1651E+03
     18.346  0.1378E+02  0.1653E+03
     18.359  0.1041E+02  0.1654E+03
     18.373  0.1095E+02  0.1655E+03
     18.386  0.1183E+02  0.1657E+03
     18.400  0.9580E+01  0.1658E+03
     18.413  0.7893E+01  0.1659E+03
     18.427  0.8709E+01  0.1661E+03
     18.440  0.9743E+01  0.1662E+03
     18.454  0.9915E+01  0.1663E+03
     18.467  0.1205E+02  0.1665E+03
     18.480  0.1157E+02  0.1666E+03
     18.494  0.1138E+02  0.1668E+03
     18.507  0.1150E+02  0.1670E+03
     18.521  0.9767E+01  0.1671E+03
     18.534  0.9380E+01  0.1672E+03
     18.548  0.9107E+01  0.1673E+03
     18.561  0.1067E+02  0.1675E+03
     18.575  0.1207E+02  0.1676E+03
     18.588  0.9254E+01  0.1678E+03
     18.602  0.8113E+01  0.1679E+03
     18.615  0.8293E+01  0.1680E+03
     18.629  0.9291E+01  0.1681E+03
     18.642  0.1069E+02  0.1683E+03
     18.656  0.1117E+02  0.1684E+03
     18.669  0.7397E+01  0.1685E+03
     18.683  0.7082E+01  0.1686E+03
     18.696  0.8511E+01  0.1687E+03
     18.710  0.1062E+02  0.1689E+03
     18.723  0.8874E+01  0.1690E+03
     18.736  0.9251E+01  0.1691E+03
     18.750  0.9827E+01  0.1692E+03
     18.763  0.9701E+01  0.1694E+03
     18.777  0.1127E+02  0.1695E+03
     18.790  0.1034E+02  0.1697E+03
     18.804  0.8436E+01  0.1698E+03
     18.817  0.9412E+01  0.1699E+03
     18.831  0.9400E+01  0.1700E+03
     18.844  0.1014E+02  0.1702E+03
     18.858  0.8373E+01  0.1703E+03
     18.871  0.8988E+01  0.1704E+03
     18.885  0.9670E+01  0.1705E+03
     18.898  0.9629E+01  0.1707E+03
     18.912  0.7984E+01  0.1708E+03
     18.925  0.9089E+01  0.1709E+03
     18.939  0.1017E+02  0.1710E+03
     18.952  0.7442E+01  0.1711E+03
     18.966  0.8704E+01  0.1712E+03
     18.979  0.9914E+01  0.1714E+03
     18.992  0.8736E+01  0.1715E+03
     19.006  0.1171E+02  0.1716E+03
     19.019  0.1376E+02  0.1718E+03
     19.033  0.1049E+02  0.1720E+03
     19.046  0.9814E+01  0.1721E+03
     19.060  0.9255E+01  0.1722E+03
     19.073  0.8281E+01  0.1723E+03
     19.087  0.6377E+01  0.1724E+03
     19.100  0.7574E+01  0.1725E+03
     19.114  0.7514E+01  0.1726E+03
     19.127  0.6152E+01  0.1727E+03
     19.141  0.6988E+01  0.1728E+03
     19.154  0.8914E+01  0.1729E+03
     19.168  0.9363E+01  0.1731E+03
     19.181  0.7886E+01  0.1732E+03
     19.195  0.6305E+01  0.1732E+03
     19.208  0.7338E+01  0.1733E+03
     19.222  0.8062E+01  0.1735E+03
     19.235  0.5927E+01  0.1735E+03
     19.248  0.7594E+01  0.1736E+03
     19.262  0.7739E+01  0.1737E+03
     19.275  0.9346E+01  0.1739E+03
     19.289  0.1040E+02  0.1740E+03
     19.302  0.1034E+02  0.1741E+03
     19.316  0.8276E+01  0.1743E+03
     19.329  0.1033E+02  0.1744E+03
     19.343  0.9109E+01  0.1745E+03
     19.356  0.6794E+01  0.1746E+03
     19.370  0.6225E+01  0.1747E+03
     19.383  0.1001E+02  0.1748E+03
     19.397  0.9003E+01  0.1749E+03
     19.410  0.9040E+01  0.1751E+03
     19.424  0.1123E+02  0.1752E+03
     19.437  0.8190E+01  0.1753E+03
     19.451  0.5031E+01  0.1754E+03
     19.464  0.7158E+01  0.1755E+03
     19.478  0.7962E+01  0.1756E+03
     19.491  0.6272E+01  0.1757E+03
     19.504  0.6045E+01  0.1758E+03
     19.518  0.7583E+01  0.1759E+03
     19.531  0.7579E+01  0.1760E+03
     19.545  0.8014E+01  0.1761E+03
     19.558  0.9630E+01  0.1762E+03
     19.572  0.8501E+01  0.1763E+03
     19.585  0.8482E+01  0.1764E+03
     19.599  0.1149E+02  0.1766E+03
     19.612  0.1018E+02  0.1767E+03
     19.626  0.7192E+01  0.1768E+03
     19.639  0.9852E+01  0.1770E+03
     19.653  0.1038E+02  0.1771E+03
     19.666  0.8777E+01  0.1772E+03
     19.680  0.1026E+02  0.1774E+03
     19.693  0.1110E+02  0.1775E+03
     19.707  0.1239E+02  0.1777E+03
     19.720  0.9938E+01  0.1778E+03
     19.734  0.9845E+01  0.1779E+03
     19.747  0.1163E+02  0.1781E+03
     19.761  0.9702E+01  0.1782E+03
     19.774  0.1036E+02  0.1784E+03
     19.787  0.1088E+02  0.1785E+03
     19.801  0.1115E+02  0.1787E+03
     19.814  0.1137E+02  0.1788E+03
     19.828  0.1373E+02  0.1790E+03
     19.841  0.1299E+02  0.1792E+03
     19.855  0.1143E+02  0.1793E+03
     19.868  0.1479E+02  0.1795E+03
     19.882  0.1512E+02  0.1797E+03
     19.895  0.1483E+02  0.1799E+03
     19.909  0.1479E+02  0.1801E+03
     19.922  0.1364E+02  0.1803E+03
     19.936  0.1265E+02  0.1805E+03
     19.949  0.1183E+02  0.1806E+03
     19.963  0.1323E+02  0.1808E+03
     19.976  0.1299E+02  0.1810E+03
     19.990  0.1217E+02  0.1812E+03
     20.003  0.1186E+02  0.1813E+03
     20.017  0.1452E+02  0.1815E+03
     20.030  0.1176E+02  0.1817E+03
     20.043  0.1040E+02  0.1818E+03
     20.057  0.1112E+02  0.1820E+03
     20.070  0.1206E+02  0.1821E+03
     20.084  0.1195E+02  0.1823E+03
     20.097  0.1089E+02  0.1824E+03
     20.111  0.1239E+02  0.1826E+03
     20.124  0.1111E+02  0.1828E+03
     20.138  0.1304E+02  0.1829E+03
     20.151  0.1345E+02  0.1831E+03
     20.165  0.1046E+02  0.1833E+03
     20.178  0.9409E+01  0.1834E+03
     20.192  0.1067E+02  0.1835E+03
     20.205  0.1323E+02  0.1837E+03
     20.219  0.1504E+02  0.1839E+03
     20.232  0.1144E+02  0.1841E+03
     20.246  0.1157E+02  0.1842E+03
     20.259  0.1210E+02  0.1844E+03
     20.273  0.1064E+02  0.1845E+03
     20.286  0.1202E+02  0.1847E+03
     20.299  0.1331E+02  0.1849E+03
     20.313  0.1226E+02  0.1850E+03
     20.326  0.1055E+02  0.1852E+03
     20.340  0.1033E+02  0.1853E+03
     20.353  0.1089E+02  0.1855E+03
     20.367  0.1244E+02  0.1856E+03
     20.380  0.1115E+02  0.1858E+03
     20.394  0.1192E+02  0.1859E+03
     20.407  0.1159E+02  0.1861E+03
     20.421  0.1182E+02  0.1863E+03
     20.434  0.1147E+02  0.1864E+03
     20.448  0.1135E+02  0.1866E+03
     20.461  0.1167E+02  0.1867E+03
     20.475  0.8370E+01  0.1868E+03
     20.488  0.7531E+01  0.1869E+03
     20.502  0.8661E+01  0.1870E+03
     20.515  0.1141E+02  0.1872E+03
     20.529  0.9168E+01  0.1873E+03
     20.542  0.8811E+01  0.1874E+03
     20.555  0.1239E+02  0.1876E+03
     20.569  0.1149E+02  0.1878E+03
     20.582  0.1037E+02  0.1879E+03
     20.596  0.1006E+02  0.1880E+03
     20.609  0.1018E+02  0.1882E+03
     20.623  0.1127E+02  0.1883E+03
     20.636  0.9940E+01  0.1885E+03
     20.650  0.1041E+02  0.1886E+03
     20.663  0.9477E+01  0.1887E+03
     20.677  0.1134E+02  0.1889E+03
     20.690  0.1131E+02  0.1890E+03
     20.704  0.9262E+01  0.1892E+03
     20.717  0.1089E+02  0.1893E+03
     20.731  0.9533E+01  0.1894E+03
     20.744  0.1070E+02  0.1896E+03
     20.758  0.1106E+02  0.1897E+03
     20.771  0.1097E+02  0.1899E+03
     20.785  0.1298E+02  0.1901E+03
     20.798  0.1363E+02  0.1902E+03
     20.811  0.1024E+02  0.1904E+03
     20.825  0.9344E+01  0.1905E+03
     20.838  0.1042E+02  0.1906E+03
     20.852  0.1134E+02  0.1908E+03
     20.865  0.1184E+02  0.1910E+03
     20.879  0.1337E+02  0.1911E+03
     20.892  0.1199E+02  0.1913E+03
     20.906  0.1316E+02  0.1915E+03
     20.919  0.1540E+02  0.1917E+03
     20.933  0.1392E+02  0.1919E+03
     20.946  0.1244E+02  0.1920E+03
     20.960  0.1275E+02  0.1922E+03
     20.973  0.1231E+02  0.1924E+03
     20.987  0.1201E+02  0.1925E+03
     21.000  0.1244E+02  0.1927E+03
     21.014  0.1376E+02  0.1929E+03
     21.027  0.1417E+02  0.1931E+03
     21.041  0.1245E+02  0.1932E+03
     21.054  0.1350E+02  0.1934E+03
     21.067  0.1135E+02  0.1936E+03
     21.081  0.1177E+02  0.1937E+03
     21.094  0.1068E+02  0.1939E+03
     21.108  0.1490E+02  0.1941E+03
     21.121  0.1896E+02  0.1943E+03
     21.135  0.1627E+02  0.1946E+03
     21.148  0.1429E+02  0.1947E+03
     21.162  0.1230E+02  0.1949E+03
     21.175  0.9682E+01  0.1950E+03
     21.189  0.1240E+02  0.1952E+03
     21.202  0.1169E+02  0.1954E+03
     21.216  0.1461E+02  0.1956E+03
     21.229  0.1569E+02  0.1958E+03
     21.243  0.1386E+02  0.1960E+03
     21.256  0.1362E+02  0.1961E+03
     21.270  0.1224E+02  0.1963E+03
     21.283  0.1169E+02  0.1965E+03
     21.297  0.1385E+02  0.1967E+03
     21.310  0.1442E+02  0.1969E+03
     21.323  0.1233E+02  0.1970E+03
     21.337  0.1094E+02  0.1972E+03
     21.350  0.9710E+01  0.1973E+03
     21.364  0.1062E+02  0.1974E+03
     21.377  0.1328E+02  0.1976E+03
     21.391  0.1148E+02  0.1978E+03
     21.404  0.1304E+02  0.1979E+03
     21.418  0.1406E+02  0.1981E+03
     21.431  0.1244E+02  0.1983E+03
     21.445  0.1152E+02  0.1985E+03
     21.458  0.1156E+02  0.1986E+03
     21.472  0.1022E+02  0.1988E+03
     21.485  0.9610E+01  0.1989E+03
     21.499  0.1204E+02  0.1990E+03
     21.512  0.1120E+02  0.1992E+03
     21.526  0.9903E+01  0.1993E+03
     21.539  0.1167E+02  0.1995E+03
     21.553  0.1094E+02  0.1996E+03
     21.566  0.1341E+02  0.1998E+03
     21.579  0.1409E+02  0.2000E+03
     21.593  0.1260E+02  0.2002E+03
     21.606  0.1097E+02  0.2003E+03
     21.620  0.1224E+02  0.2005E+03
     21.633  0.1262E+02  0.2007E+03
     21.647  0.1130E+02  0.2008E+03
     21.660  0.1254E+02  0.2010E+03
     21.674  0.1404E+02  0.2012E+03
     21.687  0.1269E+02  0.2013E+03
     21.701  0.1092E+02  0.2015E+03
     21.714  0.1049E+02  0.2016E+03
     21.728  0.1186E+02  0.2018E+03
     21.741  0.1321E+02  0.2020E+03
     21.755  0.1362E+02  0.2022E+03
     21.768  0.1220E+02  0.2023E+03
     21.782  0.9174E+01  0.2024E+03
     21.795  0.1035E+02  0.2026E+03
     21.809  0.1165E+02  0.2027E+03
     21.822  0.1049E+02  0.2029E+03
     21.835  0.1128E+02  0.2030E+03
     21.849  0.1060E+02  0.2032E+03
     21.862  0.1095E+02  0.2033E+03
     21.876  0.1242E+02  0.2035E+03
     21.889  0.1312E+02  0.2037E+03
     21.903  0.1205E+02  0.2038E+03
     21.916  0.1186E+02  0.2040E+03
     21.930  0.1032E+02  0.2041E+03
     21.943  0.9732E+01  0.2043E+03
     21.957  0.9236E+01  0.2044E+03
     21.970  0.9853E+01  0.2045E+03
     21.984  0.9676E+01  0.2046E+03
     21.997  0.9853E+01  0.2048E+03
     22.011  0.1115E+02  0.2049E+03
     22.024  0.1145E+02  0.2051E+03
     22.038  0.1126E+02  0.2052E+03
     22.051  0.1229E+02  0.2054E+03
     22.065  0.1078E+02  0.2055E+03
     22.078  0.9655E+01  0.2057E+03
     22.091  0.1031E+02  0.2058E+03
     22.105  0.1086E+02  0.2060E+03
     22.118  0.1135E+02  0.2061E+03
     22.132  0.1051E+02  0.2063E+03
     22.145  0.9297E+01  0.2064E+03
     22.159  0.1041E+02  0.2065E+03
     22.172  0.1055E+02  0.2067E+03
     22.186  0.9338E+01  0.2068E+03
     22.199  0.1128E+02  0.2069E+03
     22.213  0.9238E+01  0.2071E+03
     22.226  0.8168E+01  0.2072E+03
     22.240  0.1074E+02  0.2073E+03
     22.253  0.1090E+02  0.2075E+03
     22.267  0.9785E+01  0.2076E+03
     22.280  0.9400E+01  0.2077E+03
     22.294  0.8601E+01  0.2078E+03
     22.307  0.8586E+01  0.2080E+03
     22.321  0.1172E+02  0.2081E+03
     22.334  0.1064E+02  0.2083E+03
     22.348  0.1115E+02  0.2084E+03
     22.361  0.1432E+02  0.2086E+03
     22.374  0.1226E+02  0.2088E+03
     22.388  0.1067E+02  0.2089E+03
     22.401  0.1062E+02  0.2091E+03
     22.415  0.9995E+01  0.2092E+03
     22.428  0.1255E+02  0.2094E+03
     22.442  0.1303E+02  0.2095E+03
     22.455  0.1105E+02  0.2097E+03
     22.469  0.9679E+01  0.2098E+03
     22.482  0.1046E+02  0.2099E+03
     22.496  0.1065E+02  0.2101E+03
     22.509  0.1231E+02  0.2103E+03
     22.523  0.1223E+02  0.2104E+03
     22.536  0.1021E+02  0.2106E+03
     22.550  0.1006E+02  0.2107E+03
     22.563  0.1049E+02  0.2108E+03
     22.577  0.9267E+01  0.2110E+03
     22.590  0.9487E+01  0.2111E+03
     22.604  0.1074E+02  0.2112E+03
     22.617  0.1050E+02  0.2114E+03
     22.630  0.1198E+02  0.2115E+03
     22.644  0.1218E+02  0.2117E+03
     22.657  0.1203E+02  0.2119E+03
     22.671  0.1007E+02  0.2120E+03
     22.684  0.1039E+02  0.2121E+03
     22.698  0.1052E+02  0.2123E+03
     22.711  0.1011E+02  0.2124E+03
     22.725  0.9853E+01  0.2126E+03
     22.738  0.1118E+02  0.2127E+03
     22.752  0.8705E+01  0.2128E+03
     22.765  0.1038E+02  0.2130E+03
     22.779  0.1128E+02  0.2131E+03
     22.792  0.1195E+02  0.2133E+03
     22.806  0.1353E+02  0.2135E+03
     22.819  0.1315E+02  0.2136E+03
     22.833  0.1415E+02  0.2138E+03
     22.846  0.1202E+02  0.2140E+03
     22.860  0.8523E+01  0.2141E+03
     22.873  0.1121E+02  0.2142E+03
     22.886  0.1095E+02  0.2144E+03
     22.900  0.9703E+01  0.2145E+03
     22.913  0.9754E+01  0.2147E+03
     22.927  0.8107E+01  0.2148E+03
     22.940  0.7567E+01  0.2149E+03
     22.954  0.1039E+02  0.2150E+03
     22.967  0.1030E+02  0.2151E+03
     22.981  0.8316E+01  0.2153E+03
     22.994  0.9702E+01  0.2154E+03
     23.008  0.1065E+02  0.2155E+03
     23.021  0.1280E+02  0.2157E+03
     23.035  0.1202E+02  0.2159E+03
     23.048  0.1480E+02  0.2161E+03
     23.062  0.1480E+02  0.2163E+03
     23.075  0.1305E+02  0.2164E+03
     23.089  0.1187E+02  0.2166E+03
     23.102  0.9761E+01  0.2167E+03
     23.116  0.9965E+01  0.2169E+03
     23.129  0.1100E+02  0.2170E+03
     23.142  0.1321E+02  0.2172E+03
     23.156  0.1107E+02  0.2173E+03
     23.169  0.1043E+02  0.2175E+03
     23.183  0.9651E+01  0.2176E+03
     23.196  0.1056E+02  0.2178E+03
     23.210  0.1236E+02  0.2179E+03
     23.223  0.1235E+02  0.2181E+03
     23.237  0.8701E+01  0.2182E+03
     23.250  0.8979E+01  0.2183E+03
     23.264  0.9810E+01  0.2185E+03
     23.277  0.1000E+02  0.2186E+03
     23.291  0.8803E+01  0.2187E+03
     23.304  0.1051E+02  0.2189E+03
     23.318  0.9744E+01  0.2190E+03
     23.331  0.9468E+01  0.2191E+03
     23.345  0.1116E+02  0.2193E+03
     23.358  0.1049E+02  0.2194E+03
     23.372  0.9544E+01  0.2195E+03
     23.385  0.1251E+02  0.2197E+03
     23.398  0.1246E+02  0.2199E+03
     23.412  0.1134E+02  0.2200E+03
     23.425  0.1137E+02  0.2202E+03
     23.439  0.1167E+02  0.2203E+03
     23.452  0.1070E+02  0.2205E+03
     23.466  0.1085E+02  0.2206E+03
     23.479  0.1052E+02  0.2208E+03
     23.493  0.1031E+02  0.2209E+03
     23.506  0.1209E+02  0.2211E+03
     23.520  0.1015E+02  0.2212E+03
     23.533  0.1233E+02  0.2214E+03
     23.547  0.1250E+02  0.2215E+03
     23.560  0.1100E+02  0.2217E+03
     23.574  0.1023E+02  0.2218E+03
     23.587  0.1070E+02  0.2220E+03
     23.601  0.1024E+02  0.2221E+03
     23.614  0.1195E+02  0.2223E+03
     23.628  0.1289E+02  0.2224E+03
     23.641  0.1342E+02  0.2226E+03
     23.654  0.1311E+02  0.2228E+03
     23.668  0.1101E+02  0.2229E+03
     23.681  0.1109E+02  0.2231E+03
     23.695  0.7415E+01  0.2232E+03
     23.708  0.9182E+01  0.2233E+03
     23.722  0.1121E+02  0.2235E+03
     23.735  0.1254E+02  0.2236E+03
     23.749  0.1061E+02  0.2238E+03
     23.762  0.1043E+02  0.2239E+03
     23.776  0.1234E+02  0.2241E+03
     23.789  0.1389E+02  0.2243E+03
     23.803  0.1287E+02  0.2245E+03
     23.816  0.1195E+02  0.2246E+03
     23.830  0.9935E+01  0.2247E+03
     23.843  0.9417E+01  0.2249E+03
     23.857  0.9613E+01  0.2250E+03
     23.870  0.1036E+02  0.2251E+03
     23.884  0.1226E+02  0.2253E+03
     23.897  0.1117E+02  0.2255E+03
     23.910  0.1313E+02  0.2256E+03
     23.924  0.1157E+02  0.2258E+03
     23.937  0.1119E+02  0.2259E+03
     23.951  0.1156E+02  0.2261E+03
     23.964  0.1100E+02  0.2262E+03
     23.978  0.1254E+02  0.2264E+03
     23.991  0.1204E+02  0.2266E+03
     24.005  0.1035E+02  0.2267E+03
     24.018  0.1033E+02  0.2269E+03
     24.032  0.1169E+02  0.2270E+03
     24.045  0.1160E+02  0.2272E+03
     24.059  0.9434E+01  0.2273E+03
     24.072  0.9546E+01  0.2274E+03
     24.086  0.1058E+02  0.2276E+03
     24.099  0.1285E+02  0.2277E+03
     24.113  0.1211E+02  0.2279E+03
     24.126  0.1097E+02  0.2281E+03
     24.140  0.1134E+02  0.2282E+03
     24.153  0.7800E+01  0.2283E+03
     24.166  0.6383E+01  0.2284E+03
     24.180  0.8748E+01  0.2285E+03
     24.193  0.1234E+02  0.2287E+03
     24.207  0.1455E+02  0.2289E+03
     24.220  0.1295E+02  0.2291E+03
     24.234  0.1204E+02  0.2292E+03
     24.247  0.1033E+02  0.2294E+03
     24.261  0.8863E+01  0.2295E+03
     24.274  0.9073E+01  0.2296E+03
     24.288  0.9136E+01  0.2297E+03
     24.301  0.1057E+02  0.2299E+03
     24.315  0.1085E+02  0.2300E+03
     24.328  0.1012E+02  0.2301E+03
     24.342  0.9072E+01  0.2303E+03
     24.355  0.9070E+01  0.2304E+03
     24.369  0.9757E+01  0.2305E+03
     24.382  0.1055E+02  0.2307E+03
     24.396  0.1142E+02  0.2308E+03
     24.409  0.1269E+02  0.2310E+03
     24.422  0.1189E+02  0.2311E+03
     24.436  0.1030E+02  0.2313E+03
     24.449  0.9652E+01  0.2314E+03
     24.463  0.9480E+01  0.2315E+03
     24.476  0.1071E+02  0.2317E+03
     24.490  0.1139E+02  0.2318E+03
     24.503  0.1025E+02  0.2320E+03
     24.517  0.1143E+02  0.2321E+03
     24.530  0.1156E+02  0.2323E+03
     24.544  0.1108E+02  0.2324E+03
     24.557  0.8066E+01  0.2325E+03
     24.571  0.7474E+01  0.2326E+03
     24.584  0.8605E+01  0.2328E+03
     24.598  0.9375E+01  0.2329E+03
     24.611  0.1179E+02  0.2330E+03
     24.625  0.1474E+02  0.2332E+03
     24.638  0.1397E+02  0.2334E+03
     24.652  0.1156E+02  0.2336E+03
     24.665  0.8939E+01  0.2337E+03
     24.679  0.1021E+02  0.2338E+03
     24.692  0.9804E+01  0.2340E+03
     24.705  0.1002E+02  0.2341E+03
     24.719  0.1028E+02  0.2343E+03
     24.732  0.1225E+02  0.2344E+03
     24.746  0.1172E+02  0.2346E+03
     24.759  0.1055E+02  0.2347E+03
     24.773  0.1066E+02  0.2349E+03
     24.786  0.1103E+02  0.2350E+03
     24.800  0.1301E+02  0.2352E+03
     24.813  0.1483E+02  0.2354E+03
     24.827  0.1262E+02  0.2356E+03
     24.840  0.1231E+02  0.2357E+03
     24.854  0.1219E+02  0.2359E+03
     24.867  0.1343E+02  0.2361E+03
     24.881  0.1331E+02  0.2362E+03
     24.894  0.1412E+02  0.2364E+03
     24.908  0.1448E+02  0.2366E+03
     24.921  0.1227E+02  0.2368E+03
     24.935  0.1025E+02  0.2369E+03
     24.948  0.1019E+02  0.2371E+03
     24.961  0.1000E+02  0.2372E+03
     24.975  0.1142E+02  0.2374E+03
     24.988  0.1258E+02  0.2375E+03
     25.002  0.1368E+02  0.2377E+03
     25.015  0.1441E+02  0.2379E+03
     25.029  0.1322E+02  0.2381E+03
     25.042  0.1506E+02  0.2383E+03
     25.056  0.1283E+02  0.2385E+03
     25.069  0.1067E+02  0.2386E+03
     25.083  0.9026E+01  0.2387E+03
     25.096  0.1029E+02  0.2389E+03
     25.110  0.9432E+01  0.2390E+03
     25.123  0.9916E+01  0.2391E+03
     25.137  0.1145E+02  0.2393E+03
     25.150  0.1093E+02  0.2394E+03
     25.164  0.1022E+02  0.2396E+03
     25.177  0.1201E+02  0.2397E+03
     25.191  0.1295E+02  0.2399E+03
     25.204  0.1234E+02  0.2401E+03
     25.217  0.1076E+02  0.2402E+03
     25.231  0.1132E+02  0.2404E+03
     25.244  0.1107E+02  0.2405E+03
     25.258  0.1037E+02  0.2407E+03
     25.271  0.1137E+02  0.2408E+03
     25.285  0.1185E+02  0.2410E+03
     25.298  0.1152E+02  0.2411E+03
     25.312  0.1117E+02  0.2413E+03
     25.325  0.1132E+02  0.2414E+03
     25.339  0.1147E+02  0.2416E+03
     25.352  0.1198E+02  0.2417E+03
     25.366  0.1440E+02  0.2419E+03
     25.379  0.1234E+02  0.2421E+03
     25.393  0.1155E+02  0.2423E+03
     25.406  0.1222E+02  0.2424E+03
     25.420  0.1176E+02  0.2426E+03
     25.433  0.1150E+02  0.2427E+03
     25.447  0.1264E+02  0.2429E+03
     25.460  0.1220E+02  0.2431E+03
     25.473  0.1286E+02  0.2432E+03
     25.487  0.1348E+02  0.2434E+03
     25.500  0.1427E+02  0.2436E+03
     25.514  0.1432E+02  0.2438E+03
     25.527  0.1451E+02  0.2440E+03
     25.541  0.1252E+02  0.2442E+03
     25.554  0.1480E+02  0.2444E+03
     25.568  0.1373E+02  0.2446E+03
     25.581  0.1225E+02  0.2447E+03
     25.595  0.1322E+02  0.2449E+03
     25.608  0.1320E+02  0.2451E+03
     25.622  0.1245E+02  0.2453E+03
     25.635  0.1425E+02  0.2454E+03
     25.649  0.1615E+02  0.2457E+03
     25.662  0.1454E+02  0.2459E+03
     25.676  0.1435E+02  0.2460E+03
     25.689  0.1378E+02  0.2462E+03
     25.703  0.1251E+02  0.2464E+03
     25.716  0.1427E+02  0.2466E+03
     25.729  0.1250E+02  0.2468E+03
     25.743  0.1241E+02  0.2469E+03
     25.756  0.1306E+02  0.2471E+03
     25.770  0.1306E+02  0.2473E+03
     25.783  0.1215E+02  0.2474E+03
     25.797  0.1274E+02  0.2476E+03
     25.810  0.1289E+02  0.2478E+03
     25.824  0.1280E+02  0.2480E+03
     25.837  0.1242E+02  0.2481E+03
     25.851  0.1205E+02  0.2483E+03
     25.864  0.1254E+02  0.2485E+03
     25.878  0.1269E+02  0.2486E+03
     25.891  0.1188E+02  0.2488E+03
     25.905  0.9720E+01  0.2489E+03
     25.918  0.1167E+02  0.2491E+03
     25.932  0.1310E+02  0.2493E+03
     25.945  0.1151E+02  0.2494E+03
     25.959  0.1025E+02  0.2496E+03
     25.972  0.1320E+02  0.2497E+03
     25.985  0.1270E+02  0.2499E+03
     25.999  0.1296E+02  0.2501E+03
     26.012  0.1014E+02  0.2502E+03
     26.026  0.9272E+01  0.2503E+03
     26.039  0.1173E+02  0.2505E+03
     26.053  0.1132E+02  0.2506E+03
     26.066  0.1297E+02  0.2508E+03
     26.080  0.1203E+02  0.2510E+03
     26.093  0.1104E+02  0.2511E+03
     26.107  0.1175E+02  0.2513E+03
     26.120  0.1079E+02  0.2514E+03
     26.134  0.1047E+02  0.2516E+03
     26.147  0.9672E+01  0.2517E+03
     26.161  0.1054E+02  0.2519E+03
     26.174  0.1022E+02  0.2520E+03
     26.188  0.8648E+01  0.2521E+03
     26.201  0.1066E+02  0.2522E+03
     26.215  0.1127E+02  0.2524E+03
     26.228  0.1026E+02  0.2525E+03
     26.241  0.8960E+01  0.2527E+03
     26.255  0.1070E+02  0.2528E+03
     26.268  0.1227E+02  0.2530E+03
     26.282  0.1060E+02  0.2531E+03
     26.295  0.1050E+02  0.2533E+03
     26.309  0.1193E+02  0.2534E+03
     26.322  0.1056E+02  0.2536E+03
     26.336  0.9098E+01  0.2537E+03
     26.349  0.1039E+02  0.2538E+03
     26.363  0.1227E+02  0.2540E+03
     26.376  0.9872E+01  0.2541E+03
     26.390  0.9094E+01  0.2542E+03
     26.403  0.1041E+02  0.2544E+03
     26.417  0.9745E+01  0.2545E+03
     26.430  0.1183E+02  0.2547E+03
     26.444  0.1211E+02  0.2548E+03
     26.457  0.1138E+02  0.2550E+03
     26.471  0.1321E+02  0.2552E+03
     26.484  0.1248E+02  0.2553E+03
     26.497  0.1085E+02  0.2555E+03
     26.511  0.9901E+01  0.2556E+03
     26.524  0.1168E+02  0.2558E+03
     26.538  0.1198E+02  0.2559E+03
     26.551  0.9096E+01  0.2561E+03
     26.565  0.9941E+01  0.2562E+03
     26.578  0.1214E+02  0.2564E+03
     26.592  0.7929E+01  0.2565E+03
     26.605  0.7744E+01  0.2566E+03
     26.619  0.8385E+01  0.2567E+03
     26.632  0.1014E+02  0.2568E+03
     26.646  0.9205E+01  0.2569E+03
     26.659  0.8521E+01  0.2571E+03
     26.673  0.9974E+01  0.2572E+03
     26.686  0.9024E+01  0.2573E+03
     26.700  0.8796E+01  0.2574E+03
     26.713  0.1035E+02  0.2576E+03
     26.727  0.1033E+02  0.2577E+03
     26.740  0.8893E+01  0.2578E+03
     26.753  0.8573E+01  0.2579E+03
     26.767  0.9795E+01  0.2581E+03
     26.780  0.9132E+01  0.2582E+03
     26.794  0.8173E+01  0.2583E+03
     26.807  0.8965E+01  0.2584E+03
     26.821  0.9066E+01  0.2585E+03
     26.834  0.9263E+01  0.2587E+03
     26.848  0.8803E+01  0.2588E+03
     26.861  0.9765E+01  0.2589E+03
     26.875  0.9435E+01  0.2590E+03
     26.888  0.1008E+02  0.2592E+03
     26.902  0.9532E+01  0.2593E+03
     26.915  0.1007E+02  0.2594E+03
     26.929  0.9241E+01  0.2596E+03
     26.942  0.1053E+02  0.2597E+03
     26.956  0.1144E+02  0.2599E+03
     26.969  0.1112E+02  0.2600E+03
     26.983  0.9500E+01  0.2601E+03
     26.996  0.9471E+01  0.2603E+03
     27.009  0.9181E+01  0.2604E+03
     27.023  0.8039E+01  0.2605E+03
     27.036  0.9023E+01  0.2606E+03
     27.050  0.1002E+02  0.2608E+03
     27.063  0.1351E+02  0.2609E+03
     27.077  0.1079E+02  0.2611E+03
     27.090  0.1027E+02  0.2612E+03
     27.104  0.1005E+02  0.2614E+03
     27.117  0.8040E+01  0.2615E+03
     27.131  0.9344E+01  0.2616E+03
     27.144  0.1226E+02  0.2618E+03
     27.158  0.1278E+02  0.2619E+03
     27.171  0.1195E+02  0.2621E+03
     27.185  0.1326E+02  0.2623E+03
     27.198  0.1302E+02  0.2625E+03
     27.212  0.1173E+02  0.2626E+03
     27.225  0.9516E+01  0.2627E+03
     27.239  0.8779E+01  0.2629E+03
     27.252  0.9035E+01  0.2630E+03
     27.266  0.9621E+01  0.2631E+03
     27.279  0.9154E+01  0.2632E+03
     27.292  0.8523E+01  0.2633E+03
     27.306  0.8401E+01  0.2635E+03
     27.319  0.7715E+01  0.2636E+03
     27.333  0.9913E+01  0.2637E+03
     27.346  0.1295E+02  0.2639E+03
     27.360  0.1223E+02  0.2640E+03
     27.373  0.1179E+02  0.2642E+03
     27.387  0.1115E+02  0.2643E+03
     27.400  0.1210E+02  0.2645E+03
     27.414  0.1268E+02  0.2647E+03
     27.427  0.1156E+02  0.2648E+03
     27.441  0.1198E+02  0.2650E+03
     27.454  0.1201E+02  0.2652E+03
     27.468  0.1272E+02  0.2653E+03
     27.481  0.1202E+02  0.2655E+03
     27.495  0.8799E+01  0.2656E+03
     27.508  0.8466E+01  0.2657E+03
     27.522  0.1008E+02  0.2659E+03
     27.535  0.1320E+02  0.2660E+03
     27.548  0.1427E+02  0.2662E+03
     27.562  0.1240E+02  0.2664E+03
     27.575  0.1029E+02  0.2665E+03
     27.589  0.1142E+02  0.2667E+03
     27.602  0.1253E+02  0.2669E+03
     27.616  0.8961E+01  0.2670E+03
     27.629  0.9863E+01  0.2671E+03
     27.643  0.1278E+02  0.2673E+03
     27.656  0.1103E+02  0.2674E+03
     27.670  0.9348E+01  0.2676E+03
     27.683  0.8856E+01  0.2677E+03
     27.697  0.1074E+02  0.2678E+03
     27.710  0.9735E+01  0.2680E+03
     27.724  0.1084E+02  0.2681E+03
     27.737  0.1084E+02  0.2682E+03
     27.751  0.1091E+02  0.2684E+03
     27.764  0.1021E+02  0.2685E+03
     27.778  0.1071E+02  0.2687E+03
     27.791  0.1099E+02  0.2688E+03
     27.804  0.1242E+02  0.2690E+03
     27.818  0.1144E+02  0.2691E+03
     27.831  0.1176E+02  0.2693E+03
     27.845  0.1142E+02  0.2695E+03
     27.858  0.1206E+02  0.2696E+03
     27.872  0.1052E+02  0.2698E+03
     27.885  0.8702E+01  0.2699E+03
     27.899  0.1018E+02  0.2700E+03
     27.912  0.1010E+02  0.2702E+03
     27.926  0.9004E+01  0.2703E+03
     27.939  0.7754E+01  0.2704E+03
     27.953  0.8204E+01  0.2705E+03
     27.966  0.1174E+02  0.2706E+03
     27.980  0.1163E+02  0.2708E+03
     27.993  0.8361E+01  0.2709E+03
     28.007  0.9092E+01  0.2710E+03
     28.020  0.1092E+02  0.2712E+03
     28.034  0.1053E+02  0.2713E+03
     28.047  0.8815E+01  0.2714E+03
     28.060  0.8628E+01  0.2716E+03
     28.074  0.1018E+02  0.2717E+03
     28.087  0.1114E+02  0.2718E+03
     28.101  0.1108E+02  0.2720E+03
     28.114  0.1322E+02  0.2722E+03
     28.128  0.1319E+02  0.2724E+03
     28.141  0.1131E+02  0.2725E+03
     28.155  0.1256E+02  0.2727E+03
     28.168  0.1146E+02  0.2728E+03
     28.182  0.1202E+02  0.2730E+03
     28.195  0.1085E+02  0.2731E+03
     28.209  0.1137E+02  0.2733E+03
     28.222  0.1200E+02  0.2735E+03
     28.236  0.1180E+02  0.2736E+03
     28.249  0.1124E+02  0.2738E+03
     28.263  0.1272E+02  0.2739E+03
     28.276  0.1189E+02  0.2741E+03
     28.290  0.1302E+02  0.2743E+03
     28.303  0.1173E+02  0.2744E+03
     28.316  0.1092E+02  0.2746E+03
     28.330  0.1326E+02  0.2748E+03
     28.343  0.1403E+02  0.2749E+03
     28.357  0.1378E+02  0.2751E+03
     28.370  0.1303E+02  0.2753E+03
     28.384  0.1364E+02  0.2755E+03
     28.397  0.1096E+02  0.2756E+03
     28.411  0.1349E+02  0.2758E+03
     28.424  0.1397E+02  0.2760E+03
     28.438  0.1466E+02  0.2762E+03
     28.451  0.1713E+02  0.2764E+03
     28.465  0.1446E+02  0.2766E+03
     28.478  0.1435E+02  0.2768E+03
     28.492  0.1253E+02  0.2770E+03
     28.505  0.1340E+02  0.2772E+03
     28.519  0.1336E+02  0.2774E+03
     28.532  0.1254E+02  0.2775E+03
     28.546  0.1187E+02  0.2777E+03
     28.559  0.1093E+02  0.2778E+03
     28.572  0.1184E+02  0.2780E+03
     28.586  0.1124E+02  0.2781E+03
     28.599  0.1008E+02  0.2783E+03
     28.613  0.1105E+02  0.2784E+03
     28.626  0.1417E+02  0.2786E+03
     28.640  0.1221E+02  0.2788E+03
     28.653  0.1040E+02  0.2789E+03
     28.667  0.1047E+02  0.2791E+03
     28.680  0.1351E+02  0.2792E+03
     28.694  0.1323E+02  0.2794E+03
     28.707  0.1119E+02  0.2796E+03
     28.721  0.9586E+01  0.2797E+03
     28.734  0.1174E+02  0.2799E+03
     28.748  0.1427E+02  0.2801E+03
     28.761  0.1258E+02  0.2802E+03
     28.775  0.1077E+02  0.2804E+03
     28.788  0.1074E+02  0.2805E+03
     28.802  0.8720E+01  0.2806E+03
     28.815  0.1127E+02  0.2808E+03
     28.828  0.1471E+02  0.2810E+03
     28.842  0.1165E+02  0.2811E+03
     28.855  0.1079E+02  0.2813E+03
     28.869  0.1211E+02  0.2814E+03
     28.882  0.1120E+02  0.2816E+03
     28.896  0.9779E+01  0.2817E+03
     28.909  0.1103E+02  0.2819E+03
     28.923  0.1435E+02  0.2821E+03
     28.936  0.1233E+02  0.2822E+03
     28.950  0.1161E+02  0.2824E+03
     28.963  0.1198E+02  0.2826E+03
     28.977  0.1661E+02  0.2828E+03
     28.990  0.1595E+02  0.2830E+03
     29.004  0.1389E+02  0.2832E+03
     29.017  0.1202E+02  0.2833E+03
     29.031  0.9984E+01  0.2835E+03
     29.044  0.1248E+02  0.2836E+03
     29.058  0.1346E+02  0.2838E+03
     29.071  0.1468E+02  0.2840E+03
     29.084  0.1477E+02  0.2842E+03
     29.098  0.1356E+02  0.2844E+03
     29.111  0.1100E+02  0.2846E+03
     29.125  0.1302E+02  0.2847E+03
     29.138  0.1264E+02  0.2849E+03
     29.152  0.1107E+02  0.2850E+03
     29.165  0.9820E+01  0.2852E+03
     29.179  0.1256E+02  0.2853E+03
     29.192  0.1033E+02  0.2855E+03
     29.206  0.1146E+02  0.2856E+03
     29.219  0.1415E+02  0.2858E+03
     29.233  0.1408E+02  0.2860E+03
     29.246  0.1390E+02  0.2862E+03
     29.260  0.1334E+02  0.2864E+03
     29.273  0.1316E+02  0.2866E+03
     29.287  0.1169E+02  0.2867E+03
     29.300  0.1228E+02  0.2869E+03
     29.314  0.1189E+02  0.2871E+03
     29.327  0.1160E+02  0.2872E+03
     29.340  0.1233E+02  0.2874E+03
     29.354  0.1241E+02  0.2875E+03
     29.367  0.9352E+01  0.2877E+03
     29.381  0.1154E+02  0.2878E+03
     29.394  0.1127E+02  0.2880E+03
     29.408  0.1160E+02  0.2881E+03
     29.421  0.1357E+02  0.2883E+03
     29.435  0.1332E+02  0.2885E+03
     29.448  0.1334E+02  0.2887E+03
     29.462  0.1490E+02  0.2889E+03
     29.475  0.1363E+02  0.2891E+03
     29.489  0.1493E+02  0.2893E+03
     29.502  0.1355E+02  0.2894E+03
     29.516  0.1148E+02  0.2896E+03
     29.529  0.1152E+02  0.2897E+03
     29.543  0.1234E+02  0.2899E+03
     29.556  0.1230E+02  0.2901E+03
     29.570  0.1167E+02  0.2902E+03
     29.583  0.1114E+02  0.2904E+03
     29.596  0.1256E+02  0.2906E+03
     29.610  0.1286E+02  0.2907E+03
     29.623  0.1438E+02  0.2909E+03
     29.637  0.1411E+02  0.2911E+03
     29.650  0.1467E+02  0.2913E+03
     29.664  0.1579E+02  0.2915E+03
     29.677  0.1512E+02  0.2917E+03
     29.691  0.1567E+02  0.2919E+03
     29.704  0.1592E+02  0.2922E+03
     29.718  0.1626E+02  0.2924E+03
     29.731  0.1494E+02  0.2926E+03
     29.745  0.1474E+02  0.2928E+03
     29.758  0.1610E+02  0.2930E+03
     29.772  0.1408E+02  0.2932E+03
     29.785  0.1204E+02  0.2933E+03
     29.799  0.1200E+02  0.2935E+03
     29.812  0.1334E+02  0.2937E+03
     29.826  0.1243E+02  0.2939E+03
     29.839  0.1172E+02  0.2940E+03
     29.853  0.1094E+02  0.2942E+03
     29.866  0.1178E+02  0.2943E+03
     29.879  0.1294E+02  0.2945E+03
     29.893  0.1448E+02  0.2947E+03
     29.906  0.1371E+02  0.2949E+03
     29.920  0.1376E+02  0.2951E+03
     29.933  0.1339E+02  0.2952E+03
     29.947  0.1296E+02  0.2954E+03
     29.960  0.1248E+02  0.2956E+03
     29.974  0.1245E+02  0.2957E+03
     29.987  0.1123E+02  0.2959E+03
     30.001  0.1116E+02  0.2960E+03
     30.014  0.1124E+02  0.2962E+03
     30.028  0.1016E+02  0.2963E+03
     30.041  0.7656E+01  0.2964E+03
     30.055  0.1080E+02  0.2966E+03
     30.068  0.1176E+02  0.2967E+03
     30.082  0.1103E+02  0.2969E+03
     30.095  0.8964E+01  0.2970E+03
     30.109  0.9315E+01  0.2971E+03
     30.122  0.9452E+01  0.2973E+03
     30.135  0.1041E+02  0.2974E+03
     30.149  0.9023E+01  0.2975E+03
     30.162  0.8910E+01  0.2976E+03
     30.176  0.8769E+01  0.2978E+03
     30.189  0.7747E+01  0.2979E+03
     30.203  0.5430E+01  0.2979E+03
     30.216  0.6442E+01  0.2980E+03
     30.230  0.8980E+01  0.2982E+03
     30.243  0.8228E+01  0.2983E+03
     30.257  0.6852E+01  0.2984E+03
     30.270  0.7137E+01  0.2985E+03
     30.284  0.5919E+01  0.2985E+03
     30.297  0.4989E+01  0.2986E+03
     30.311  0.5393E+01  0.2987E+03
     30.324  0.4609E+01  0.2987E+03
     30.338  0.4677E+01  0.2988E+03
     30.351  0.4399E+01  0.2989E+03
     30.365  0.4128E+01  0.2989E+03
     30.378  0.4039E+01  0.2990E+03
     30.391  0.3836E+01  0.2990E+03
     30.405  0.2867E+01  0.2991E+03
     30.418  0.3236E+01  0.2991E+03
     30.432  0.4157E+01  0.2992E+03
     30.445  0.3712E+01  0.2992E+03
     30.459  0.2735E+01  0.2992E+03
     30.472  0.3339E+01  0.2993E+03
     30.486  0.3392E+01  0.2993E+03
     30.499  0.3573E+01  0.2994E+03
     30.513  0.2493E+01  0.2994E+03
     30.526  0.1528E+01  0.2994E+03
     30.540  0.9921E+00  0.2994E+03
     30.553  0.1023E+01  0.2995E+03
     30.567  0.1568E+01  0.2995E+03
     30.580  0.1572E+01  0.2995E+03
     30.594  0.2186E+01  0.2995E+03
     30.607  0.8394E+00  0.2995E+03
     30.621  0.8971E+00  0.2996E+03
     30.634  0.1577E+01  0.2996E+03
     30.647  0.1343E+01  0.2996E+03
     30.661  0.9702E+00  0.2996E+03
     30.674  0.1091E+01  0.2996E+03
     30.688  0.1727E+01  0.2996E+03
     30.701  0.1915E+01  0.2997E+03
     30.715  0.8746E+00  0.2997E+03
     30.728  0.9868E+00  0.2997E+03
     30.742  0.8268E+00  0.2997E+03
     30.755  0.2063E+01  0.2997E+03
     30.769  0.1405E+01  0.2998E+03
     30.782  0.7135E+00  0.2998E+03
     30.796  0.1244E+01  0.2998E+03
     30.809  0.1620E+01  0.2998E+03
     30.823  0.1222E+01  0.2998E+03
     30.836  0.5940E+00  0.2998E+03
     30.850  0.2177E+00  0.2998E+03
     30.863  0.3905E+00  0.2998E+03
     30.877  0.6655E+00  0.2998E+03
     30.890  0.1123E+01  0.2999E+03
     30.903  0.1328E+01  0.2999E+03
     30.917  0.8400E+00  0.2999E+03
     30.930  0.4942E+00  0.2999E+03
     30.944  0.4004E+00  0.2999E+03
     30.957  0.4059E+00  0.2999E+03
     30.971  0.5117E+00  0.2999E+03
     30.984  0.1175E+01  0.2999E+03
     30.998  0.9782E+00  0.2999E+03
     31.011  0.3977E+00  0.2999E+03
     31.025  0.4313E+00  0.3000E+03
     31.038  0.7377E+00  0.3000E+03
     31.052  0.7991E+00  0.3000E+03
     31.065  0.7702E+00  0.3000E+03
     31.079  0.5307E+00  0.3000E+03
     31.092  0.3535E+00  0.3000E+03
     31.106  0.1649E+00  0.3000E+03
     31.119  0.1512E-01  0.3000E+03
     31.133  0.7708E-04  0.3000E+03
     31.146  0.1336E-07  0.3000E+03
     31.159  0.6880E-13  0.3000E+03
     31.173  0.0000E+00  0.3000E+03
     31.186  0.0000E+00  0.3000E+03
     31.200  0.0000E+00  0.3000E+03
     31.213  0.0000E+00  0.3000E+03
     31.227  0.0000E+00  0.3000E+03
     31.240  0.0000E+00  0.3000E+03
     31.254  0.0000E+00  0.3000E+03
     31.267  0.0000E+00  0.3000E+03
     31.281  0.0000E+00  0.3000E+03
     31.294  0.0000E+00  0.3000E+03
     31.308  0.0000E+00  0.3000E+03
     31.321  0.0000E+00  0.3000E+03
     31.335  0.0000E+00  0.3000E+03
     31.348  0.0000E+00  0.3000E+03
     31.362  0.0000E+00  0.3000E+03
     31.375  0.0000E+00  0.3000E+03
     31.389  0.0000E+00  0.3000E+03
     31.402  0.0000E+00  0.3000E+03
     31.415  0.0000E+00  0.3000E+03
     31.429  0.0000E+00  0.3000E+03
     31.442  0.0000E+00  0.3000E+03
     31.456  0.0000E+00  0.3000E+03
     31.469  0.0000E+00  0.3000E+03
     31.483  0.0000E+00  0.3000E+03
     31.496  0.0000E+00  0.3000E+03
     31.510  0.0000E+00  0.3000E+03
     31.523  0.0000E+00  0.3000E+03
     31.537  0.0000E+00  0.3000E+03
     31.550  0.0000E+00  0.3000E+03
     31.564  0.0000E+00  0.3000E+03
     31.577  0.0000E+00  0.3000E+03
     31.591  0.0000E+00  0.3000E+03
     31.604  0.0000E+00  0.3000E+03
     31.618  0.0000E+00  0.3000E+03
     31.631  0.0000E+00  0.3000E+03
     31.645  0.0000E+00  0.3000E+03
     31.658  0.0000E+00  0.3000E+03
     31.671  0.0000E+00  0.3000E+03
     31.685  0.0000E+00  0.3000E+03
     31.698  0.0000E+00  0.3000E+03
     31.712  0.0000E+00  0.3000E+03
     31.725  0.0000E+00  0.3000E+03
     31.739  0.0000E+00  0.3000E+03
     31.752  0.0000E+00  0.3000E+03
     31.766  0.0000E+00  0.3000E+03
     31.779  0.0000E+00  0.3000E+03
     31.793  0.0000E+00  0.3000E+03
     31.806  0.0000E+00  0.3000E+03
     31.820  0.0000E+00  0.3000E+03
     31.833  0.0000E+00  0.3000E+03
     31.847  0.0000E+00  0.3000E+03
     31.860  0.0000E+00  0.3000E+03
     31.874  0.0000E+00  0.3000E+03
     31.887  0.0000E+00  0.3000E+03
     31.901  0.0000E+00  0.3000E+03
     31.914  0.0000E+00  0.3000E+03
     31.927  0.0000E+00  0.3000E+03
     31.941  0.0000E+00  0.3000E+03
     31.954  0.0000E+00  0.3000E+03
     31.968  0.0000E+00  0.3000E+03
     31.981  0.0000E+00  0.3000E+03
     31.995  0.0000E+00  0.3000E+03
     32.008  0.0000E+00  0.3000E+03
     32.022  0.0000E+00  0.3000E+03
     32.035  0.0000E+00  0.3000E+03
     32.049  0.0000E+00  0.3000E+03
     32.062  0.0000E+00  0.3000E+03
     32.076  0.0000E+00  0.3000E+03
     32.089  0.0000E+00  0.3000E+03
     32.103  0.0000E+00  0.3000E+03
     32.116  0.0000E+00  0.3000E+03
     32.130  0.0000E+00  0.3000E+03
     32.143  0.0000E+00  0.3000E+03
     32.157  0.0000E+00  0.3000E+03
     32.170  0.0000E+00  0.3000E+03
     32.183  0.0000E+00  0.3000E+03
     32.197  0.0000E+00  0.3000E+03
     32.210  0.0000E+00  0.3000E+03
     32.224  0.0000E+00  0.3000E+03
     32.237  0.0000E+00  0.3000E+03
     32.251  0.0000E+00  0.3000E+03
     32.264  0.0000E+00  0.3000E+03
     32.278  0.0000E+00  0.3000E+03
     32.291  0.0000E+00  0.3000E+03
     32.305  0.0000E+00  0.3000E+03
     32.318  0.0000E+00  0.3000E+03
     32.332  0.0000E+00  0.3000E+03
     32.345  0.0000E+00  0.3000E+03
     32.359  0.0000E+00  0.3000E+03
     32.372  0.0000E+00  0.3000E+03
     32.386  0.0000E+00  0.3000E+03
     32.399  0.0000E+00  0.3000E+03
     32.413  0.0000E+00  0.3000E+03
     32.426  0.0000E+00  0.3000E+03
     32.440  0.0000E+00  0.3000E+03
     32.453  0.0000E+00  0.3000E+03
     32.466  0.0000E+00  0.3000E+03
     32.480  0.0000E+00  0.3000E+03
     32.493  0.0000E+00  0.3000E+03
     32.507  0.0000E+00  0.3000E+03
     32.520  0.0000E+00  0.3000E+03
     32.534  0.0000E+00  0.3000E+03
     32.547  0.0000E+00  0.3000E+03
     32.561  0.0000E+00  0.3000E+03
     32.574  0.0000E+00  0.3000E+03
     32.588  0.0000E+00  0.3000E+03
     32.601  0.0000E+00  0.3000E+03
     32.615  0.0000E+00  0.3000E+03
     32.628  0.0000E+00  0.3000E+03
     32.642  0.0000E+00  0.3000E+03
     32.655  0.0000E+00  0.3000E+03
     32.669  0.0000E+00  0.3000E+03
     32.682  0.0000E+00  0.3000E+03
     32.696  0.0000E+00  0.3000E+03
     32.709  0.0000E+00  0.3000E+03
     32.722  0.0000E+00  0.3000E+03
     32.736  0.0000E+00  0.3000E+03
     32.749  0.0000E+00  0.3000E+03
     32.763  0.0000E+00  0.3000E+03
     32.776  0.0000E+00  0.3000E+03
     32.790  0.0000E+00  0.3000E+03
     32.803  0.0000E+00  0.3000E+03
     32.817  0.0000E+00  0.3000E+03
     32.830  0.0000E+00  0.3000E+03
     32.844  0.0000E+00  0.3000E+03
     32.857  0.0000E+00  0.3000E+03
     32.871  0.0000E+00  0.3000E+03
     32.884  0.0000E+00  0.3000E+03
     32.898  0.0000E+00  0.3000E+03
     32.911  0.0000E+00  0.3000E+03
     32.925  0.0000E+00  0.3000E+03
     32.938  0.0000E+00  0.3000E+03
     32.952  0.0000E+00  0.3000E+03
     32.965  0.0000E+00  0.3000E+03
     32.978  0.0000E+00  0.3000E+03
     32.992  0.0000E+00  0.3000E+03
     33.005  0.0000E+00  0.3000E+03
     33.019  0.0000E+00  0.3000E+03
     33.032  0.0000E+00  0.3000E+03
     33.046  0.0000E+00  0.3000E+03
     33.059  0.0000E+00  0.3000E+03
     33.073  0.0000E+00  0.3000E+03
     33.086  0.0000E+00  0.3000E+03
     33.100  0.0000E+00  0.3000E+03
     33.113  0.0000E+00  0.3000E+03
     33.127  0.0000E+00  0.3000E+03
     33.140  0.0000E+00  0.3000E+03
     33.154  0.0000E+00  0.3000E+03
     33.167  0.0000E+00  0.3000E+03
     33.181  0.0000E+00  0.3000E+03
     33.194  0.0000E+00  0.3000E+03
     33.208  0.0000E+00  0.3000E+03
     33.221  0.0000E+00  0.3000E+03
     33.234  0.0000E+00  0.3000E+03
     33.248  0.0000E+00  0.3000E+03
     33.261  0.0000E+00  0.3000E+03
     33.275  0.0000E+00  0.3000E+03
     33.288  0.0000E+00  0.3000E+03
     33.302  0.0000E+00  0.3000E+03
     33.315  0.0000E+00  0.3000E+03
     33.329  0.0000E+00  0.3000E+03
     33.342  0.0000E+00  0.3000E+03
     33.356  0.0000E+00  0.3000E+03
     33.369  0.0000E+00  0.3000E+03
     33.383  0.0000E+00  0.3000E+03
     33.396  0.0000E+00  0.3000E+03
     33.410  0.0000E+00  0.3000E+03
     33.423  0.0000E+00  0.3000E+03
     33.437  0.0000E+00  0.3000E+03
     33.450  0.0000E+00  0.3000E+03
     33.464  0.0000E+00  0.3000E+03
     33.477  0.0000E+00  0.3000E+03
     33.490  0.0000E+00  0.3000E+03
     33.504  0.0000E+00  0.3000E+03
     33.517  0.0000E+00  0.3000E+03
     33.531  0.0000E+00  0.3000E+03
     33.544  0.0000E+00  0.3000E+03
