  16  16   0   0
  0.2012733E+02  0.4979000E-09  0.4979000E-09  0.1500000E-08  0.5000000E-15
  1.000000000000000E-004
  CAR 
 Dielectric                              
     26.14369461    -21.97045712 4000     -0.29951896      1.00000000
    -21.970  0.0000E+00  0.0000E+00
    -21.958  0.0000E+00  0.0000E+00
    -21.946  0.0000E+00  0.0000E+00
    -21.934  0.0000E+00  0.0000E+00
    -21.922  0.0000E+00  0.0000E+00
    -21.910  0.0000E+00  0.0000E+00
    -21.898  0.0000E+00  0.0000E+00
    -21.886  0.0000E+00  0.0000E+00
    -21.874  0.0000E+00  0.0000E+00
    -21.862  0.0000E+00  0.0000E+00
    -21.850  0.0000E+00  0.0000E+00
    -21.838  0.0000E+00  0.0000E+00
    -21.826  0.0000E+00  0.0000E+00
    -21.814  0.0000E+00  0.0000E+00
    -21.802  0.0000E+00  0.0000E+00
    -21.790  0.0000E+00  0.0000E+00
    -21.778  0.0000E+00  0.0000E+00
    -21.766  0.0000E+00  0.0000E+00
    -21.754  0.0000E+00  0.0000E+00
    -21.742  0.0000E+00  0.0000E+00
    -21.730  0.0000E+00  0.0000E+00
    -21.718  0.0000E+00  0.0000E+00
    -21.706  0.0000E+00  0.0000E+00
    -21.694  0.0000E+00  0.0000E+00
    -21.682  0.0000E+00  0.0000E+00
    -21.670  0.0000E+00  0.0000E+00
    -21.658  0.0000E+00  0.0000E+00
    -21.646  0.0000E+00  0.0000E+00
    -21.634  0.0000E+00  0.0000E+00
    -21.622  0.0000E+00  0.0000E+00
    -21.610  0.0000E+00  0.0000E+00
    -21.597  0.0000E+00  0.0000E+00
    -21.585  0.0000E+00  0.0000E+00
    -21.573  0.0000E+00  0.0000E+00
    -21.561  0.0000E+00  0.0000E+00
    -21.549  0.0000E+00  0.0000E+00
    -21.537  0.0000E+00  0.0000E+00
    -21.525  0.0000E+00  0.0000E+00
    -21.513  0.0000E+00  0.0000E+00
    -21.501  0.0000E+00  0.0000E+00
    -21.489  0.0000E+00  0.0000E+00
    -21.477  0.0000E+00  0.0000E+00
    -21.465  0.0000E+00  0.0000E+00
    -21.453  0.0000E+00  0.0000E+00
    -21.441  0.0000E+00  0.0000E+00
    -21.429  0.0000E+00  0.0000E+00
    -21.417  0.0000E+00  0.0000E+00
    -21.405  0.0000E+00  0.0000E+00
    -21.393  0.0000E+00  0.0000E+00
    -21.381  0.0000E+00  0.0000E+00
    -21.369  0.0000E+00  0.0000E+00
    -21.357  0.0000E+00  0.0000E+00
    -21.345  0.0000E+00  0.0000E+00
    -21.333  0.0000E+00  0.0000E+00
    -21.321  0.0000E+00  0.0000E+00
    -21.309  0.0000E+00  0.0000E+00
    -21.297  0.0000E+00  0.0000E+00
    -21.285  0.0000E+00  0.0000E+00
    -21.273  0.0000E+00  0.0000E+00
    -21.261  0.0000E+00  0.0000E+00
    -21.249  0.0000E+00  0.0000E+00
    -21.237  0.0000E+00  0.0000E+00
    -21.225  0.0000E+00  0.0000E+00
    -21.212  0.0000E+00  0.0000E+00
    -21.200  0.0000E+00  0.0000E+00
    -21.188  0.0000E+00  0.0000E+00
    -21.176  0.0000E+00  0.0000E+00
    -21.164  0.0000E+00  0.0000E+00
    -21.152  0.0000E+00  0.0000E+00
    -21.140  0.0000E+00  0.0000E+00
    -21.128  0.0000E+00  0.0000E+00
    -21.116  0.0000E+00  0.0000E+00
    -21.104  0.0000E+00  0.0000E+00
    -21.092  0.0000E+00  0.0000E+00
    -21.080  0.0000E+00  0.0000E+00
    -21.068  0.0000E+00  0.0000E+00
    -21.056  0.0000E+00  0.0000E+00
    -21.044  0.0000E+00  0.0000E+00
    -21.032  0.0000E+00  0.0000E+00
    -21.020  0.0000E+00  0.0000E+00
    -21.008  0.0000E+00  0.0000E+00
    -20.996  0.0000E+00  0.0000E+00
    -20.984  0.0000E+00  0.0000E+00
    -20.972  0.0000E+00  0.0000E+00
    -20.960  0.0000E+00  0.0000E+00
    -20.948  0.0000E+00  0.0000E+00
    -20.936  0.0000E+00  0.0000E+00
    -20.924  0.0000E+00  0.0000E+00
    -20.912  0.0000E+00  0.0000E+00
    -20.900  0.0000E+00  0.0000E+00
    -20.888  0.0000E+00  0.0000E+00
    -20.876  0.0000E+00  0.0000E+00
    -20.864  0.0000E+00  0.0000E+00
    -20.852  0.0000E+00  0.0000E+00
    -20.839  0.0000E+00  0.0000E+00
    -20.827  0.0000E+00  0.0000E+00
    -20.815  0.0000E+00  0.0000E+00
    -20.803  0.0000E+00  0.0000E+00
    -20.791  0.0000E+00  0.0000E+00
    -20.779  0.0000E+00  0.0000E+00
    -20.767  0.0000E+00  0.0000E+00
    -20.755  0.0000E+00  0.0000E+00
    -20.743  0.0000E+00  0.0000E+00
    -20.731  0.0000E+00  0.0000E+00
    -20.719  0.0000E+00  0.0000E+00
    -20.707  0.0000E+00  0.0000E+00
    -20.695  0.0000E+00  0.0000E+00
    -20.683  0.0000E+00  0.0000E+00
    -20.671  0.0000E+00  0.0000E+00
    -20.659  0.0000E+00  0.0000E+00
    -20.647  0.0000E+00  0.0000E+00
    -20.635  0.0000E+00  0.0000E+00
    -20.623  0.0000E+00  0.0000E+00
    -20.611  0.0000E+00  0.0000E+00
    -20.599  0.0000E+00  0.0000E+00
    -20.587  0.0000E+00  0.0000E+00
    -20.575  0.0000E+00  0.0000E+00
    -20.563  0.0000E+00  0.0000E+00
    -20.551  0.0000E+00  0.0000E+00
    -20.539  0.0000E+00  0.0000E+00
    -20.527  0.0000E+00  0.0000E+00
    -20.515  0.0000E+00  0.0000E+00
    -20.503  0.0000E+00  0.0000E+00
    -20.491  0.0000E+00  0.0000E+00
    -20.479  0.0000E+00  0.0000E+00
    -20.467  0.0000E+00  0.0000E+00
    -20.454  0.0000E+00  0.0000E+00
    -20.442  0.0000E+00  0.0000E+00
    -20.430  0.0000E+00  0.0000E+00
    -20.418  0.0000E+00  0.0000E+00
    -20.406  0.0000E+00  0.0000E+00
    -20.394  0.0000E+00  0.0000E+00
    -20.382  0.0000E+00  0.0000E+00
    -20.370  0.0000E+00  0.0000E+00
    -20.358  0.0000E+00  0.0000E+00
    -20.346  0.0000E+00  0.0000E+00
    -20.334  0.0000E+00  0.0000E+00
    -20.322  0.0000E+00  0.0000E+00
    -20.310  0.0000E+00  0.0000E+00
    -20.298  0.0000E+00  0.0000E+00
    -20.286  0.0000E+00  0.0000E+00
    -20.274  0.0000E+00  0.0000E+00
    -20.262  0.0000E+00  0.0000E+00
    -20.250  0.0000E+00  0.0000E+00
    -20.238  0.0000E+00  0.0000E+00
    -20.226  0.0000E+00  0.0000E+00
    -20.214  0.0000E+00  0.0000E+00
    -20.202  0.0000E+00  0.0000E+00
    -20.190  0.0000E+00  0.0000E+00
    -20.178  0.0000E+00  0.0000E+00
    -20.166  0.0000E+00  0.0000E+00
    -20.154  0.0000E+00  0.0000E+00
    -20.142  0.0000E+00  0.0000E+00
    -20.130  0.0000E+00  0.0000E+00
    -20.118  0.0000E+00  0.0000E+00
    -20.106  0.0000E+00  0.0000E+00
    -20.094  0.0000E+00  0.0000E+00
    -20.082  0.0000E+00  0.0000E+00
    -20.069  0.0000E+00  0.0000E+00
    -20.057  0.0000E+00  0.0000E+00
    -20.045  0.0000E+00  0.0000E+00
    -20.033  0.0000E+00  0.0000E+00
    -20.021  0.0000E+00  0.0000E+00
    -20.009  0.0000E+00  0.0000E+00
    -19.997  0.0000E+00  0.0000E+00
    -19.985  0.0000E+00  0.0000E+00
    -19.973  0.0000E+00  0.0000E+00
    -19.961  0.0000E+00  0.0000E+00
    -19.949  0.0000E+00  0.0000E+00
    -19.937  0.0000E+00  0.0000E+00
    -19.925  0.0000E+00  0.0000E+00
    -19.913  0.0000E+00  0.0000E+00
    -19.901  0.0000E+00  0.0000E+00
    -19.889  0.0000E+00  0.0000E+00
    -19.877  0.0000E+00  0.0000E+00
    -19.865  0.0000E+00  0.0000E+00
    -19.853  0.0000E+00  0.0000E+00
    -19.841  0.2184E-16  0.2628E-18
    -19.829  0.7549E-11  0.9082E-13
    -19.817  0.1729E-06  0.2080E-08
    -19.805  0.2661E-03  0.3203E-05
    -19.793  0.3223E-01  0.3909E-03
    -19.781  0.4246E+00  0.5499E-02
    -19.769  0.1081E+01  0.1851E-01
    -19.757  0.1243E+01  0.3346E-01
    -19.745  0.1248E+01  0.4848E-01
    -19.733  0.1248E+01  0.6349E-01
    -19.721  0.1243E+01  0.7845E-01
    -19.709  0.1255E+01  0.9355E-01
    -19.696  0.1254E+01  0.1086E+00
    -19.684  0.1224E+01  0.1234E+00
    -19.672  0.1291E+01  0.1389E+00
    -19.660  0.1196E+01  0.1533E+00
    -19.648  0.1310E+01  0.1690E+00
    -19.636  0.1178E+01  0.1832E+00
    -19.624  0.1337E+01  0.1993E+00
    -19.612  0.1145E+01  0.2131E+00
    -19.600  0.1368E+01  0.2295E+00
    -19.588  0.1131E+01  0.2431E+00
    -19.576  0.1337E+01  0.2592E+00
    -19.564  0.1244E+01  0.2742E+00
    -19.552  0.1153E+01  0.2881E+00
    -19.540  0.1419E+01  0.3051E+00
    -19.528  0.1096E+01  0.3183E+00
    -19.516  0.1297E+01  0.3339E+00
    -19.504  0.1363E+01  0.3503E+00
    -19.492  0.1047E+01  0.3629E+00
    -19.480  0.1388E+01  0.3796E+00
    -19.468  0.1323E+01  0.3955E+00
    -19.456  0.1012E+01  0.4077E+00
    -19.444  0.1439E+01  0.4250E+00
    -19.432  0.1304E+01  0.4407E+00
    -19.420  0.1040E+01  0.4532E+00
    -19.408  0.1344E+01  0.4694E+00
    -19.396  0.1425E+01  0.4866E+00
    -19.384  0.1041E+01  0.4991E+00
    -19.372  0.1189E+01  0.5134E+00
    -19.360  0.1527E+01  0.5318E+00
    -19.348  0.1164E+01  0.5458E+00
    -19.336  0.1021E+01  0.5581E+00
    -19.324  0.1454E+01  0.5755E+00
    -19.311  0.1388E+01  0.5922E+00
    -19.299  0.1064E+01  0.6050E+00
    -19.287  0.1087E+01  0.6181E+00
    -19.275  0.1597E+01  0.6373E+00
    -19.263  0.1228E+01  0.6521E+00
    -19.251  0.1064E+01  0.6649E+00
    -19.239  0.1131E+01  0.6785E+00
    -19.227  0.1647E+01  0.6983E+00
    -19.215  0.1184E+01  0.7126E+00
    -19.203  0.1003E+01  0.7246E+00
    -19.191  0.1241E+01  0.7396E+00
    -19.179  0.1530E+01  0.7580E+00
    -19.167  0.1324E+01  0.7739E+00
    -19.155  0.9386E+00  0.7852E+00
    -19.143  0.1180E+01  0.7994E+00
    -19.131  0.1573E+01  0.8183E+00
    -19.119  0.1321E+01  0.8342E+00
    -19.107  0.1105E+01  0.8475E+00
    -19.095  0.9455E+00  0.8589E+00
    -19.083  0.1555E+01  0.8776E+00
    -19.071  0.1474E+01  0.8953E+00
    -19.059  0.1105E+01  0.9086E+00
    -19.047  0.1055E+01  0.9213E+00
    -19.035  0.1157E+01  0.9352E+00
    -19.023  0.1631E+01  0.9549E+00
    -19.011  0.1377E+01  0.9714E+00
    -18.999  0.9503E+00  0.9829E+00
    -18.987  0.1085E+01  0.9959E+00
    -18.975  0.1406E+01  0.1013E+01
    -18.963  0.1482E+01  0.1031E+01
    -18.951  0.1379E+01  0.1047E+01
    -18.939  0.9108E+00  0.1058E+01
    -18.926  0.1038E+01  0.1071E+01
    -18.914  0.1570E+01  0.1090E+01
    -18.902  0.1477E+01  0.1107E+01
    -18.890  0.1188E+01  0.1122E+01
    -18.878  0.1129E+01  0.1135E+01
    -18.866  0.8801E+00  0.1146E+01
    -18.854  0.1578E+01  0.1165E+01
    -18.842  0.1617E+01  0.1184E+01
    -18.830  0.1091E+01  0.1197E+01
    -18.818  0.1100E+01  0.1211E+01
    -18.806  0.1060E+01  0.1223E+01
    -18.794  0.1299E+01  0.1239E+01
    -18.782  0.1668E+01  0.1259E+01
    -18.770  0.1364E+01  0.1275E+01
    -18.758  0.9389E+00  0.1287E+01
    -18.746  0.1017E+01  0.1299E+01
    -18.734  0.1334E+01  0.1315E+01
    -18.722  0.1545E+01  0.1334E+01
    -18.710  0.1400E+01  0.1351E+01
    -18.698  0.1257E+01  0.1366E+01
    -18.686  0.9369E+00  0.1377E+01
    -18.674  0.9359E+00  0.1388E+01
    -18.662  0.1729E+01  0.1409E+01
    -18.650  0.1469E+01  0.1427E+01
    -18.638  0.1225E+01  0.1441E+01
    -18.626  0.1145E+01  0.1455E+01
    -18.614  0.1069E+01  0.1468E+01
    -18.602  0.9409E+00  0.1479E+01
    -18.590  0.1815E+01  0.1501E+01
    -18.578  0.1502E+01  0.1519E+01
    -18.566  0.1136E+01  0.1533E+01
    -18.553  0.9829E+00  0.1545E+01
    -18.541  0.1153E+01  0.1559E+01
    -18.529  0.1203E+01  0.1573E+01
    -18.517  0.1523E+01  0.1591E+01
    -18.505  0.1646E+01  0.1611E+01
    -18.493  0.1117E+01  0.1625E+01
    -18.481  0.1024E+01  0.1637E+01
    -18.469  0.9082E+00  0.1648E+01
    -18.457  0.1448E+01  0.1665E+01
    -18.445  0.1621E+01  0.1685E+01
    -18.433  0.1290E+01  0.1700E+01
    -18.421  0.1398E+01  0.1717E+01
    -18.409  0.1015E+01  0.1729E+01
    -18.397  0.9506E+00  0.1741E+01
    -18.385  0.1081E+01  0.1754E+01
    -18.373  0.1910E+01  0.1777E+01
    -18.361  0.1436E+01  0.1794E+01
    -18.349  0.1054E+01  0.1807E+01
    -18.337  0.1276E+01  0.1822E+01
    -18.325  0.9957E+00  0.1834E+01
    -18.313  0.1040E+01  0.1847E+01
    -18.301  0.1432E+01  0.1864E+01
    -18.289  0.1800E+01  0.1885E+01
    -18.277  0.1380E+01  0.1902E+01
    -18.265  0.8854E+00  0.1913E+01
    -18.253  0.1163E+01  0.1927E+01
    -18.241  0.1043E+01  0.1939E+01
    -18.229  0.1336E+01  0.1955E+01
    -18.217  0.1586E+01  0.1974E+01
    -18.205  0.1417E+01  0.1991E+01
    -18.193  0.1490E+01  0.2009E+01
    -18.181  0.8988E+00  0.2020E+01
    -18.168  0.9601E+00  0.2032E+01
    -18.156  0.1104E+01  0.2045E+01
    -18.144  0.1620E+01  0.2065E+01
    -18.132  0.1673E+01  0.2085E+01
    -18.120  0.1123E+01  0.2098E+01
    -18.108  0.1341E+01  0.2114E+01
    -18.096  0.1233E+01  0.2129E+01
    -18.084  0.7524E+00  0.2138E+01
    -18.072  0.1130E+01  0.2152E+01
    -18.060  0.1715E+01  0.2172E+01
    -18.048  0.1682E+01  0.2193E+01
    -18.036  0.1306E+01  0.2208E+01
    -18.024  0.8884E+00  0.2219E+01
    -18.012  0.1344E+01  0.2235E+01
    -18.000  0.1063E+01  0.2248E+01
    -17.988  0.9401E+00  0.2259E+01
    -17.976  0.1663E+01  0.2279E+01
    -17.964  0.1663E+01  0.2299E+01
    -17.952  0.1403E+01  0.2316E+01
    -17.940  0.1187E+01  0.2331E+01
    -17.928  0.7574E+00  0.2340E+01
    -17.916  0.1282E+01  0.2355E+01
    -17.904  0.1163E+01  0.2369E+01
    -17.892  0.1485E+01  0.2387E+01
    -17.880  0.1612E+01  0.2406E+01
    -17.868  0.1354E+01  0.2423E+01
    -17.856  0.1307E+01  0.2438E+01
    -17.844  0.1185E+01  0.2453E+01
    -17.832  0.6981E+00  0.2461E+01
    -17.820  0.1141E+01  0.2475E+01
    -17.808  0.1684E+01  0.2495E+01
    -17.796  0.1638E+01  0.2515E+01
    -17.783  0.1341E+01  0.2531E+01
    -17.771  0.1190E+01  0.2545E+01
    -17.759  0.1196E+01  0.2559E+01
    -17.747  0.1242E+01  0.2574E+01
    -17.735  0.8336E+00  0.2584E+01
    -17.723  0.1009E+01  0.2597E+01
    -17.711  0.2066E+01  0.2621E+01
    -17.699  0.1571E+01  0.2640E+01
    -17.687  0.1187E+01  0.2655E+01
    -17.675  0.1163E+01  0.2669E+01
    -17.663  0.9911E+00  0.2681E+01
    -17.651  0.1225E+01  0.2695E+01
    -17.639  0.1169E+01  0.2709E+01
    -17.627  0.1146E+01  0.2723E+01
    -17.615  0.1796E+01  0.2745E+01
    -17.603  0.1628E+01  0.2764E+01
    -17.591  0.1241E+01  0.2779E+01
    -17.579  0.1072E+01  0.2792E+01
    -17.567  0.1028E+01  0.2805E+01
    -17.555  0.8907E+00  0.2815E+01
    -17.543  0.1446E+01  0.2833E+01
    -17.531  0.1636E+01  0.2852E+01
    -17.519  0.1386E+01  0.2869E+01
    -17.507  0.1425E+01  0.2886E+01
    -17.495  0.1430E+01  0.2903E+01
    -17.483  0.1088E+01  0.2916E+01
    -17.471  0.1046E+01  0.2929E+01
    -17.459  0.9530E+00  0.2941E+01
    -17.447  0.9646E+00  0.2952E+01
    -17.435  0.2164E+01  0.2978E+01
    -17.423  0.1556E+01  0.2997E+01
    -17.411  0.1122E+01  0.3010E+01
    -17.398  0.1194E+01  0.3025E+01
    -17.386  0.1362E+01  0.3041E+01
    -17.374  0.1041E+01  0.3054E+01
    -17.362  0.1012E+01  0.3066E+01
    -17.350  0.1127E+01  0.3079E+01
    -17.338  0.1418E+01  0.3096E+01
    -17.326  0.2101E+01  0.3122E+01
    -17.314  0.1369E+01  0.3138E+01
    -17.302  0.1049E+01  0.3151E+01
    -17.290  0.1003E+01  0.3163E+01
    -17.278  0.1274E+01  0.3178E+01
    -17.266  0.1070E+01  0.3191E+01
    -17.254  0.1088E+01  0.3204E+01
    -17.242  0.1714E+01  0.3225E+01
    -17.230  0.1337E+01  0.3241E+01
    -17.218  0.1655E+01  0.3261E+01
    -17.206  0.1489E+01  0.3279E+01
    -17.194  0.1067E+01  0.3292E+01
    -17.182  0.8547E+00  0.3302E+01
    -17.170  0.1122E+01  0.3315E+01
    -17.158  0.1170E+01  0.3329E+01
    -17.146  0.1398E+01  0.3346E+01
    -17.134  0.1997E+01  0.3370E+01
    -17.122  0.1243E+01  0.3385E+01
    -17.110  0.1111E+01  0.3399E+01
    -17.098  0.1593E+01  0.3418E+01
    -17.086  0.1204E+01  0.3432E+01
    -17.074  0.8705E+00  0.3443E+01
    -17.062  0.8961E+00  0.3453E+01
    -17.050  0.1326E+01  0.3469E+01
    -17.038  0.1713E+01  0.3490E+01
    -17.025  0.1843E+01  0.3512E+01
    -17.013  0.1414E+01  0.3529E+01
    -17.001  0.9422E+00  0.3541E+01
    -16.989  0.1116E+01  0.3554E+01
    -16.977  0.1505E+01  0.3572E+01
    -16.965  0.1037E+01  0.3585E+01
    -16.953  0.8320E+00  0.3595E+01
    -16.941  0.1365E+01  0.3611E+01
    -16.929  0.1906E+01  0.3634E+01
    -16.917  0.1470E+01  0.3652E+01
    -16.905  0.1642E+01  0.3671E+01
    -16.893  0.1119E+01  0.3685E+01
    -16.881  0.9120E+00  0.3696E+01
    -16.869  0.1003E+01  0.3708E+01
    -16.857  0.1461E+01  0.3725E+01
    -16.845  0.1072E+01  0.3738E+01
    -16.833  0.1333E+01  0.3754E+01
    -16.821  0.1861E+01  0.3777E+01
    -16.809  0.1411E+01  0.3794E+01
    -16.797  0.1293E+01  0.3809E+01
    -16.785  0.1552E+01  0.3828E+01
    -16.773  0.1043E+01  0.3841E+01
    -16.761  0.8759E+00  0.3851E+01
    -16.749  0.8764E+00  0.3862E+01
    -16.737  0.1497E+01  0.3880E+01
    -16.725  0.1734E+01  0.3901E+01
    -16.713  0.1515E+01  0.3919E+01
    -16.701  0.1561E+01  0.3938E+01
    -16.689  0.1185E+01  0.3952E+01
    -16.677  0.1156E+01  0.3966E+01
    -16.665  0.1473E+01  0.3983E+01
    -16.653  0.1116E+01  0.3997E+01
    -16.640  0.8720E+00  0.4007E+01
    -16.628  0.8180E+00  0.4017E+01
    -16.616  0.1903E+01  0.4040E+01
    -16.604  0.2074E+01  0.4065E+01
    -16.592  0.1196E+01  0.4079E+01
    -16.580  0.1410E+01  0.4096E+01
    -16.568  0.1156E+01  0.4110E+01
    -16.556  0.9741E+00  0.4122E+01
    -16.544  0.1326E+01  0.4138E+01
    -16.532  0.1308E+01  0.4154E+01
    -16.520  0.9428E+00  0.4165E+01
    -16.508  0.1258E+01  0.4180E+01
    -16.496  0.1761E+01  0.4201E+01
    -16.484  0.2020E+01  0.4226E+01
    -16.472  0.1148E+01  0.4239E+01
    -16.460  0.1258E+01  0.4255E+01
    -16.448  0.1226E+01  0.4269E+01
    -16.436  0.8965E+00  0.4280E+01
    -16.424  0.1045E+01  0.4293E+01
    -16.412  0.1421E+01  0.4310E+01
    -16.400  0.1389E+01  0.4327E+01
    -16.388  0.1720E+01  0.4347E+01
    -16.376  0.1246E+01  0.4362E+01
    -16.364  0.1717E+01  0.4383E+01
    -16.352  0.1450E+01  0.4400E+01
    -16.340  0.1037E+01  0.4413E+01
    -16.328  0.1316E+01  0.4429E+01
    -16.316  0.9614E+00  0.4440E+01
    -16.304  0.8702E+00  0.4451E+01
    -16.292  0.1219E+01  0.4465E+01
    -16.280  0.2087E+01  0.4490E+01
    -16.268  0.1809E+01  0.4512E+01
    -16.255  0.1159E+01  0.4526E+01
    -16.243  0.1157E+01  0.4540E+01
    -16.231  0.1591E+01  0.4559E+01
    -16.219  0.1157E+01  0.4573E+01
    -16.207  0.1149E+01  0.4587E+01
    -16.195  0.1173E+01  0.4601E+01
    -16.183  0.9363E+00  0.4612E+01
    -16.171  0.1152E+01  0.4626E+01
    -16.159  0.2009E+01  0.4650E+01
    -16.147  0.2016E+01  0.4675E+01
    -16.135  0.1387E+01  0.4691E+01
    -16.123  0.9135E+00  0.4702E+01
    -16.111  0.1227E+01  0.4717E+01
    -16.099  0.1362E+01  0.4733E+01
    -16.087  0.1142E+01  0.4747E+01
    -16.075  0.1102E+01  0.4760E+01
    -16.063  0.1236E+01  0.4775E+01
    -16.051  0.1437E+01  0.4793E+01
    -16.039  0.1662E+01  0.4813E+01
    -16.027  0.1585E+01  0.4832E+01
    -16.015  0.1898E+01  0.4855E+01
    -16.003  0.1160E+01  0.4868E+01
    -15.991  0.8726E+00  0.4879E+01
    -15.979  0.1234E+01  0.4894E+01
    -15.967  0.1154E+01  0.4908E+01
    -15.955  0.1199E+01  0.4922E+01
    -15.943  0.1165E+01  0.4936E+01
    -15.931  0.1921E+01  0.4959E+01
    -15.919  0.1663E+01  0.4979E+01
    -15.907  0.1294E+01  0.4995E+01
    -15.895  0.1298E+01  0.5010E+01
    -15.882  0.2224E+01  0.5037E+01
    -15.870  0.2279E+01  0.5065E+01
    -15.858  0.2383E+01  0.5093E+01
    -15.846  0.2736E+01  0.5126E+01
    -15.834  0.2652E+01  0.5158E+01
    -15.822  0.2912E+01  0.5193E+01
    -15.810  0.3408E+01  0.5234E+01
    -15.798  0.3550E+01  0.5277E+01
    -15.786  0.3023E+01  0.5313E+01
    -15.774  0.2874E+01  0.5348E+01
    -15.762  0.2418E+01  0.5377E+01
    -15.750  0.3280E+01  0.5416E+01
    -15.738  0.2842E+01  0.5451E+01
    -15.726  0.2364E+01  0.5479E+01
    -15.714  0.2843E+01  0.5513E+01
    -15.702  0.2595E+01  0.5544E+01
    -15.690  0.3614E+01  0.5588E+01
    -15.678  0.3411E+01  0.5629E+01
    -15.666  0.3303E+01  0.5669E+01
    -15.654  0.3021E+01  0.5705E+01
    -15.642  0.2761E+01  0.5738E+01
    -15.630  0.2387E+01  0.5767E+01
    -15.618  0.3324E+01  0.5807E+01
    -15.606  0.3183E+01  0.5845E+01
    -15.594  0.2241E+01  0.5872E+01
    -15.582  0.2865E+01  0.5907E+01
    -15.570  0.3413E+01  0.5948E+01
    -15.558  0.3478E+01  0.5990E+01
    -15.546  0.3478E+01  0.6031E+01
    -15.534  0.2832E+01  0.6066E+01
    -15.522  0.3294E+01  0.6105E+01
    -15.510  0.2944E+01  0.6141E+01
    -15.497  0.2222E+01  0.6167E+01
    -15.485  0.3276E+01  0.6207E+01
    -15.473  0.3173E+01  0.6245E+01
    -15.461  0.2493E+01  0.6275E+01
    -15.449  0.3495E+01  0.6317E+01
    -15.437  0.3628E+01  0.6361E+01
    -15.425  0.3114E+01  0.6398E+01
    -15.413  0.3483E+01  0.6440E+01
    -15.401  0.3015E+01  0.6476E+01
    -15.389  0.3061E+01  0.6513E+01
    -15.377  0.3225E+01  0.6552E+01
    -15.365  0.2593E+01  0.6583E+01
    -15.353  0.2611E+01  0.6615E+01
    -15.341  0.3660E+01  0.6659E+01
    -15.329  0.3289E+01  0.6698E+01
    -15.317  0.3293E+01  0.6738E+01
    -15.305  0.3661E+01  0.6782E+01
    -15.293  0.3529E+01  0.6824E+01
    -15.281  0.3169E+01  0.6862E+01
    -15.269  0.3039E+01  0.6899E+01
    -15.257  0.3671E+01  0.6943E+01
    -15.245  0.3052E+01  0.6980E+01
    -15.233  0.2463E+01  0.7009E+01
    -15.221  0.3103E+01  0.7047E+01
    -15.209  0.4007E+01  0.7095E+01
    -15.197  0.3690E+01  0.7139E+01
    -15.185  0.3566E+01  0.7182E+01
    -15.173  0.4037E+01  0.7231E+01
    -15.161  0.3301E+01  0.7271E+01
    -15.149  0.3210E+01  0.7309E+01
    -15.137  0.3802E+01  0.7355E+01
    -15.125  0.3814E+01  0.7401E+01
    -15.112  0.3293E+01  0.7440E+01
    -15.100  0.2993E+01  0.7476E+01
    -15.088  0.3814E+01  0.7522E+01
    -15.076  0.4817E+01  0.7580E+01
    -15.064  0.4210E+01  0.7631E+01
    -15.052  0.4375E+01  0.7684E+01
    -15.040  0.5352E+01  0.7748E+01
    -15.028  0.5119E+01  0.7810E+01
    -15.016  0.4229E+01  0.7860E+01
    -15.004  0.5408E+01  0.7926E+01
    -14.992  0.3603E+01  0.7969E+01
    -14.980  0.2693E+01  0.8001E+01
    -14.968  0.3526E+01  0.8044E+01
    -14.956  0.3629E+01  0.8087E+01
    -14.944  0.3781E+01  0.8133E+01
    -14.932  0.3244E+01  0.8172E+01
    -14.920  0.3445E+01  0.8213E+01
    -14.908  0.3011E+01  0.8250E+01
    -14.896  0.2821E+01  0.8283E+01
    -14.884  0.2591E+01  0.8315E+01
    -14.872  0.2955E+01  0.8350E+01
    -14.860  0.2131E+01  0.8376E+01
    -14.848  0.2261E+01  0.8403E+01
    -14.836  0.2508E+01  0.8433E+01
    -14.824  0.2895E+01  0.8468E+01
    -14.812  0.2838E+01  0.8502E+01
    -14.800  0.2435E+01  0.8532E+01
    -14.788  0.3192E+01  0.8570E+01
    -14.776  0.2299E+01  0.8598E+01
    -14.764  0.1783E+01  0.8619E+01
    -14.752  0.2532E+01  0.8649E+01
    -14.739  0.2332E+01  0.8678E+01
    -14.727  0.1716E+01  0.8698E+01
    -14.715  0.2240E+01  0.8725E+01
    -14.703  0.2094E+01  0.8750E+01
    -14.691  0.2961E+01  0.8786E+01
    -14.679  0.2887E+01  0.8821E+01
    -14.667  0.3273E+01  0.8860E+01
    -14.655  0.2731E+01  0.8893E+01
    -14.643  0.2272E+01  0.8920E+01
    -14.631  0.2044E+01  0.8945E+01
    -14.619  0.1771E+01  0.8966E+01
    -14.607  0.1547E+01  0.8985E+01
    -14.595  0.1697E+01  0.9005E+01
    -14.583  0.1191E+01  0.9020E+01
    -14.571  0.1727E+01  0.9040E+01
    -14.559  0.2559E+01  0.9071E+01
    -14.547  0.2005E+01  0.9095E+01
    -14.535  0.1776E+01  0.9117E+01
    -14.523  0.1775E+01  0.9138E+01
    -14.511  0.2045E+01  0.9163E+01
    -14.499  0.1503E+01  0.9181E+01
    -14.487  0.1183E+01  0.9195E+01
    -14.475  0.1441E+01  0.9212E+01
    -14.463  0.2140E+01  0.9238E+01
    -14.451  0.1669E+01  0.9258E+01
    -14.439  0.1618E+01  0.9277E+01
    -14.427  0.2186E+01  0.9304E+01
    -14.415  0.2528E+01  0.9334E+01
    -14.403  0.2406E+01  0.9363E+01
    -14.391  0.2145E+01  0.9389E+01
    -14.379  0.1699E+01  0.9409E+01
    -14.367  0.1936E+01  0.9433E+01
    -14.354  0.1626E+01  0.9452E+01
    -14.342  0.1579E+01  0.9471E+01
    -14.330  0.2368E+01  0.9500E+01
    -14.318  0.3501E+01  0.9542E+01
    -14.306  0.2591E+01  0.9573E+01
    -14.294  0.1787E+01  0.9595E+01
    -14.282  0.3320E+01  0.9635E+01
    -14.270  0.3566E+01  0.9677E+01
    -14.258  0.2611E+01  0.9709E+01
    -14.246  0.4172E+01  0.9759E+01
    -14.234  0.5385E+01  0.9824E+01
    -14.222  0.4045E+01  0.9872E+01
    -14.210  0.2562E+01  0.9903E+01
    -14.198  0.2441E+01  0.9933E+01
    -14.186  0.2780E+01  0.9966E+01
    -14.174  0.4214E+01  0.1002E+02
    -14.162  0.3622E+01  0.1006E+02
    -14.150  0.3525E+01  0.1010E+02
    -14.138  0.2954E+01  0.1014E+02
    -14.126  0.2221E+01  0.1017E+02
    -14.114  0.2199E+01  0.1019E+02
    -14.102  0.1700E+01  0.1021E+02
    -14.090  0.1540E+01  0.1023E+02
    -14.078  0.1943E+01  0.1025E+02
    -14.066  0.2342E+01  0.1028E+02
    -14.054  0.3496E+01  0.1032E+02
    -14.042  0.3925E+01  0.1037E+02
    -14.030  0.2015E+01  0.1040E+02
    -14.018  0.1919E+01  0.1042E+02
    -14.006  0.1794E+01  0.1044E+02
    -13.994  0.1566E+01  0.1046E+02
    -13.982  0.1520E+01  0.1048E+02
    -13.969  0.1379E+01  0.1049E+02
    -13.957  0.1956E+01  0.1052E+02
    -13.945  0.2002E+01  0.1054E+02
    -13.933  0.2910E+01  0.1058E+02
    -13.921  0.3358E+01  0.1062E+02
    -13.909  0.1519E+01  0.1064E+02
    -13.897  0.1136E+01  0.1065E+02
    -13.885  0.1889E+01  0.1067E+02
    -13.873  0.1505E+01  0.1069E+02
    -13.861  0.1203E+01  0.1070E+02
    -13.849  0.1461E+01  0.1072E+02
    -13.837  0.1502E+01  0.1074E+02
    -13.825  0.1838E+01  0.1076E+02
    -13.813  0.2834E+01  0.1080E+02
    -13.801  0.2412E+01  0.1083E+02
    -13.789  0.1055E+01  0.1084E+02
    -13.777  0.1321E+01  0.1085E+02
    -13.765  0.1522E+01  0.1087E+02
    -13.753  0.1449E+01  0.1089E+02
    -13.741  0.1313E+01  0.1091E+02
    -13.729  0.1187E+01  0.1092E+02
    -13.717  0.1186E+01  0.1093E+02
    -13.705  0.1590E+01  0.1095E+02
    -13.693  0.2537E+01  0.1098E+02
    -13.681  0.1939E+01  0.1101E+02
    -13.669  0.1029E+01  0.1102E+02
    -13.657  0.1100E+01  0.1103E+02
    -13.645  0.1166E+01  0.1105E+02
    -13.633  0.1194E+01  0.1106E+02
    -13.621  0.1525E+01  0.1108E+02
    -13.609  0.1210E+01  0.1109E+02
    -13.597  0.9530E+00  0.1111E+02
    -13.584  0.1301E+01  0.1112E+02
    -13.572  0.1859E+01  0.1114E+02
    -13.560  0.1841E+01  0.1117E+02
    -13.548  0.1078E+01  0.1118E+02
    -13.536  0.1575E+01  0.1120E+02
    -13.524  0.1772E+01  0.1122E+02
    -13.512  0.1950E+01  0.1124E+02
    -13.500  0.1987E+01  0.1127E+02
    -13.488  0.2332E+01  0.1129E+02
    -13.476  0.2445E+01  0.1132E+02
    -13.464  0.1863E+01  0.1135E+02
    -13.452  0.2454E+01  0.1138E+02
    -13.440  0.2179E+01  0.1140E+02
    -13.428  0.2074E+01  0.1143E+02
    -13.416  0.1939E+01  0.1145E+02
    -13.404  0.1887E+01  0.1147E+02
    -13.392  0.2202E+01  0.1150E+02
    -13.380  0.2056E+01  0.1152E+02
    -13.368  0.1692E+01  0.1154E+02
    -13.356  0.1951E+01  0.1157E+02
    -13.344  0.2815E+01  0.1160E+02
    -13.332  0.2273E+01  0.1163E+02
    -13.320  0.1899E+01  0.1165E+02
    -13.308  0.1588E+01  0.1167E+02
    -13.296  0.1748E+01  0.1169E+02
    -13.284  0.2027E+01  0.1172E+02
    -13.272  0.2239E+01  0.1174E+02
    -13.260  0.2148E+01  0.1177E+02
    -13.248  0.2120E+01  0.1179E+02
    -13.236  0.2008E+01  0.1182E+02
    -13.224  0.1664E+01  0.1184E+02
    -13.211  0.1963E+01  0.1186E+02
    -13.199  0.1830E+01  0.1188E+02
    -13.187  0.2197E+01  0.1191E+02
    -13.175  0.2562E+01  0.1194E+02
    -13.163  0.1472E+01  0.1196E+02
    -13.151  0.1167E+01  0.1197E+02
    -13.139  0.2091E+01  0.1200E+02
    -13.127  0.2672E+01  0.1203E+02
    -13.115  0.2189E+01  0.1206E+02
    -13.103  0.1775E+01  0.1208E+02
    -13.091  0.1469E+01  0.1210E+02
    -13.079  0.1575E+01  0.1212E+02
    -13.067  0.1697E+01  0.1214E+02
    -13.055  0.2368E+01  0.1216E+02
    -13.043  0.2777E+01  0.1220E+02
    -13.031  0.1723E+01  0.1222E+02
    -13.019  0.1152E+01  0.1223E+02
    -13.007  0.1316E+01  0.1225E+02
    -12.995  0.2166E+01  0.1227E+02
    -12.983  0.2638E+01  0.1231E+02
    -12.971  0.1713E+01  0.1233E+02
    -12.959  0.2046E+01  0.1235E+02
    -12.947  0.1876E+01  0.1237E+02
    -12.935  0.1224E+01  0.1239E+02
    -12.923  0.2084E+01  0.1241E+02
    -12.911  0.2439E+01  0.1244E+02
    -12.899  0.2426E+01  0.1247E+02
    -12.887  0.1875E+01  0.1249E+02
    -12.875  0.1364E+01  0.1251E+02
    -12.863  0.2433E+01  0.1254E+02
    -12.851  0.2284E+01  0.1257E+02
    -12.839  0.2373E+01  0.1260E+02
    -12.826  0.1968E+01  0.1262E+02
    -12.814  0.1874E+01  0.1264E+02
    -12.802  0.2632E+01  0.1267E+02
    -12.790  0.2904E+01  0.1271E+02
    -12.778  0.2145E+01  0.1273E+02
    -12.766  0.2492E+01  0.1276E+02
    -12.754  0.2832E+01  0.1280E+02
    -12.742  0.3000E+01  0.1283E+02
    -12.730  0.2681E+01  0.1287E+02
    -12.718  0.2669E+01  0.1290E+02
    -12.706  0.3179E+01  0.1294E+02
    -12.694  0.2121E+01  0.1296E+02
    -12.682  0.1307E+01  0.1298E+02
    -12.670  0.2449E+01  0.1301E+02
    -12.658  0.2753E+01  0.1304E+02
    -12.646  0.2191E+01  0.1307E+02
    -12.634  0.2418E+01  0.1310E+02
    -12.622  0.1871E+01  0.1312E+02
    -12.610  0.2204E+01  0.1315E+02
    -12.598  0.1847E+01  0.1317E+02
    -12.586  0.1800E+01  0.1319E+02
    -12.574  0.2210E+01  0.1322E+02
    -12.562  0.2258E+01  0.1324E+02
    -12.550  0.2426E+01  0.1327E+02
    -12.538  0.2028E+01  0.1330E+02
    -12.526  0.2261E+01  0.1332E+02
    -12.514  0.3013E+01  0.1336E+02
    -12.502  0.3446E+01  0.1340E+02
    -12.490  0.3180E+01  0.1344E+02
    -12.478  0.3403E+01  0.1348E+02
    -12.466  0.3176E+01  0.1352E+02
    -12.454  0.3586E+01  0.1356E+02
    -12.441  0.3091E+01  0.1360E+02
    -12.429  0.2588E+01  0.1363E+02
    -12.417  0.2979E+01  0.1367E+02
    -12.405  0.3775E+01  0.1371E+02
    -12.393  0.3579E+01  0.1376E+02
    -12.381  0.2958E+01  0.1379E+02
    -12.369  0.3207E+01  0.1383E+02
    -12.357  0.3287E+01  0.1387E+02
    -12.345  0.2992E+01  0.1390E+02
    -12.333  0.2825E+01  0.1394E+02
    -12.321  0.3563E+01  0.1398E+02
    -12.309  0.3424E+01  0.1402E+02
    -12.297  0.3068E+01  0.1406E+02
    -12.285  0.3680E+01  0.1410E+02
    -12.273  0.3364E+01  0.1414E+02
    -12.261  0.2494E+01  0.1417E+02
    -12.249  0.2457E+01  0.1420E+02
    -12.237  0.4399E+01  0.1426E+02
    -12.225  0.3744E+01  0.1430E+02
    -12.213  0.2948E+01  0.1434E+02
    -12.201  0.2675E+01  0.1437E+02
    -12.189  0.3393E+01  0.1441E+02
    -12.177  0.4112E+01  0.1446E+02
    -12.165  0.3027E+01  0.1450E+02
    -12.153  0.2308E+01  0.1452E+02
    -12.141  0.3566E+01  0.1457E+02
    -12.129  0.4584E+01  0.1462E+02
    -12.117  0.3396E+01  0.1466E+02
    -12.105  0.2594E+01  0.1469E+02
    -12.093  0.3342E+01  0.1473E+02
    -12.081  0.3276E+01  0.1477E+02
    -12.068  0.3837E+01  0.1482E+02
    -12.056  0.3750E+01  0.1487E+02
    -12.044  0.3473E+01  0.1491E+02
    -12.032  0.3429E+01  0.1495E+02
    -12.020  0.3964E+01  0.1500E+02
    -12.008  0.3078E+01  0.1503E+02
    -11.996  0.3730E+01  0.1508E+02
    -11.984  0.3749E+01  0.1512E+02
    -11.972  0.3876E+01  0.1517E+02
    -11.960  0.4370E+01  0.1522E+02
    -11.948  0.4050E+01  0.1527E+02
    -11.936  0.3438E+01  0.1531E+02
    -11.924  0.4172E+01  0.1536E+02
    -11.912  0.4860E+01  0.1542E+02
    -11.900  0.4101E+01  0.1547E+02
    -11.888  0.4718E+01  0.1553E+02
    -11.876  0.6006E+01  0.1560E+02
    -11.864  0.6316E+01  0.1568E+02
    -11.852  0.5253E+01  0.1574E+02
    -11.840  0.4158E+01  0.1579E+02
    -11.828  0.3760E+01  0.1583E+02
    -11.816  0.4238E+01  0.1588E+02
    -11.804  0.4167E+01  0.1593E+02
    -11.792  0.4242E+01  0.1599E+02
    -11.780  0.3427E+01  0.1603E+02
    -11.768  0.3716E+01  0.1607E+02
    -11.756  0.3140E+01  0.1611E+02
    -11.744  0.3473E+01  0.1615E+02
    -11.732  0.3679E+01  0.1620E+02
    -11.720  0.2934E+01  0.1623E+02
    -11.708  0.3531E+01  0.1627E+02
    -11.696  0.3383E+01  0.1631E+02
    -11.683  0.3279E+01  0.1635E+02
    -11.671  0.3128E+01  0.1639E+02
    -11.659  0.3107E+01  0.1643E+02
    -11.647  0.2903E+01  0.1646E+02
    -11.635  0.2677E+01  0.1650E+02
    -11.623  0.2591E+01  0.1653E+02
    -11.611  0.2912E+01  0.1656E+02
    -11.599  0.3361E+01  0.1660E+02
    -11.587  0.3440E+01  0.1664E+02
    -11.575  0.2760E+01  0.1668E+02
    -11.563  0.2449E+01  0.1671E+02
    -11.551  0.2454E+01  0.1674E+02
    -11.539  0.2294E+01  0.1676E+02
    -11.527  0.2901E+01  0.1680E+02
    -11.515  0.2919E+01  0.1683E+02
    -11.503  0.2476E+01  0.1686E+02
    -11.491  0.1793E+01  0.1688E+02
    -11.479  0.8729E+00  0.1690E+02
    -11.467  0.9757E+00  0.1691E+02
    -11.455  0.1428E+01  0.1692E+02
    -11.443  0.1181E+01  0.1694E+02
    -11.431  0.7310E+00  0.1695E+02
    -11.419  0.1392E+01  0.1696E+02
    -11.407  0.1499E+01  0.1698E+02
    -11.395  0.1354E+01  0.1700E+02
    -11.383  0.1629E+01  0.1702E+02
    -11.371  0.1402E+01  0.1703E+02
    -11.359  0.8291E+00  0.1704E+02
    -11.347  0.6942E+00  0.1705E+02
    -11.335  0.9276E+00  0.1706E+02
    -11.323  0.1576E+01  0.1708E+02
    -11.311  0.1789E+01  0.1710E+02
    -11.298  0.1556E+01  0.1712E+02
    -11.286  0.1270E+01  0.1714E+02
    -11.274  0.1124E+01  0.1715E+02
    -11.262  0.8383E+00  0.1716E+02
    -11.250  0.6360E+00  0.1717E+02
    -11.238  0.1686E+01  0.1719E+02
    -11.226  0.1957E+01  0.1721E+02
    -11.214  0.1030E+01  0.1723E+02
    -11.202  0.1370E+01  0.1724E+02
    -11.190  0.1130E+01  0.1726E+02
    -11.178  0.8629E+00  0.1727E+02
    -11.166  0.1622E+01  0.1729E+02
    -11.154  0.1436E+01  0.1730E+02
    -11.142  0.1109E+01  0.1732E+02
    -11.130  0.1532E+01  0.1734E+02
    -11.118  0.1020E+01  0.1735E+02
    -11.106  0.1092E+01  0.1736E+02
    -11.094  0.1547E+01  0.1738E+02
    -11.082  0.1341E+01  0.1740E+02
    -11.070  0.1535E+01  0.1741E+02
    -11.058  0.1308E+01  0.1743E+02
    -11.046  0.8889E+00  0.1744E+02
    -11.034  0.1126E+01  0.1745E+02
    -11.022  0.1647E+01  0.1747E+02
    -11.010  0.1577E+01  0.1749E+02
    -10.998  0.1476E+01  0.1751E+02
    -10.986  0.1233E+01  0.1753E+02
    -10.974  0.9404E+00  0.1754E+02
    -10.962  0.1026E+01  0.1755E+02
    -10.950  0.1235E+01  0.1756E+02
    -10.938  0.1891E+01  0.1759E+02
    -10.925  0.2020E+01  0.1761E+02
    -10.913  0.1491E+01  0.1763E+02
    -10.901  0.7640E+00  0.1764E+02
    -10.889  0.1005E+01  0.1765E+02
    -10.877  0.1129E+01  0.1766E+02
    -10.865  0.9437E+00  0.1768E+02
    -10.853  0.2025E+01  0.1770E+02
    -10.841  0.2417E+01  0.1773E+02
    -10.829  0.1526E+01  0.1775E+02
    -10.817  0.1350E+01  0.1776E+02
    -10.805  0.1375E+01  0.1778E+02
    -10.793  0.1516E+01  0.1780E+02
    -10.781  0.2256E+01  0.1783E+02
    -10.769  0.1897E+01  0.1785E+02
    -10.757  0.1530E+01  0.1787E+02
    -10.745  0.2394E+01  0.1790E+02
    -10.733  0.1722E+01  0.1792E+02
    -10.721  0.1911E+01  0.1794E+02
    -10.709  0.2061E+01  0.1796E+02
    -10.697  0.2394E+01  0.1799E+02
    -10.685  0.1874E+01  0.1802E+02
    -10.673  0.1072E+01  0.1803E+02
    -10.661  0.1419E+01  0.1804E+02
    -10.649  0.2946E+01  0.1808E+02
    -10.637  0.3338E+01  0.1812E+02
    -10.625  0.3720E+01  0.1817E+02
    -10.613  0.3824E+01  0.1821E+02
    -10.601  0.3617E+01  0.1825E+02
    -10.589  0.4272E+01  0.1831E+02
    -10.577  0.3402E+01  0.1835E+02
    -10.565  0.3250E+01  0.1839E+02
    -10.553  0.4613E+01  0.1844E+02
    -10.540  0.5059E+01  0.1850E+02
    -10.528  0.5064E+01  0.1856E+02
    -10.516  0.5673E+01  0.1863E+02
    -10.504  0.5728E+01  0.1870E+02
    -10.492  0.4523E+01  0.1876E+02
    -10.480  0.3687E+01  0.1880E+02
    -10.468  0.3338E+01  0.1884E+02
    -10.456  0.5227E+01  0.1890E+02
    -10.444  0.4822E+01  0.1896E+02
    -10.432  0.3635E+01  0.1900E+02
    -10.420  0.3378E+01  0.1905E+02
    -10.408  0.3646E+01  0.1909E+02
    -10.396  0.2752E+01  0.1912E+02
    -10.384  0.2473E+01  0.1915E+02
    -10.372  0.3729E+01  0.1920E+02
    -10.360  0.4885E+01  0.1926E+02
    -10.348  0.3966E+01  0.1930E+02
    -10.336  0.2621E+01  0.1933E+02
    -10.324  0.2311E+01  0.1936E+02
    -10.312  0.2915E+01  0.1940E+02
    -10.300  0.3055E+01  0.1943E+02
    -10.288  0.3653E+01  0.1948E+02
    -10.276  0.3317E+01  0.1952E+02
    -10.264  0.2607E+01  0.1955E+02
    -10.252  0.2830E+01  0.1958E+02
    -10.240  0.3184E+01  0.1962E+02
    -10.228  0.3435E+01  0.1966E+02
    -10.216  0.2727E+01  0.1970E+02
    -10.204  0.2943E+01  0.1973E+02
    -10.192  0.2677E+01  0.1976E+02
    -10.180  0.2233E+01  0.1979E+02
    -10.168  0.3003E+01  0.1983E+02
    -10.155  0.3441E+01  0.1987E+02
    -10.143  0.2665E+01  0.1990E+02
    -10.131  0.2307E+01  0.1993E+02
    -10.119  0.2515E+01  0.1996E+02
    -10.107  0.3317E+01  0.2000E+02
    -10.095  0.2882E+01  0.2003E+02
    -10.083  0.2605E+01  0.2006E+02
    -10.071  0.3182E+01  0.2010E+02
    -10.059  0.2461E+01  0.2013E+02
    -10.047  0.1849E+01  0.2015E+02
    -10.035  0.2437E+01  0.2018E+02
    -10.023  0.1936E+01  0.2021E+02
    -10.011  0.2989E+01  0.2024E+02
     -9.999  0.3654E+01  0.2029E+02
     -9.987  0.3225E+01  0.2033E+02
     -9.975  0.2234E+01  0.2035E+02
     -9.963  0.2461E+01  0.2038E+02
     -9.951  0.1963E+01  0.2041E+02
     -9.939  0.2017E+01  0.2043E+02
     -9.927  0.1868E+01  0.2045E+02
     -9.915  0.2972E+01  0.2049E+02
     -9.903  0.3598E+01  0.2053E+02
     -9.891  0.2143E+01  0.2056E+02
     -9.879  0.1995E+01  0.2058E+02
     -9.867  0.2881E+01  0.2062E+02
     -9.855  0.2715E+01  0.2065E+02
     -9.843  0.1941E+01  0.2067E+02
     -9.831  0.1444E+01  0.2069E+02
     -9.819  0.2606E+01  0.2072E+02
     -9.807  0.3941E+01  0.2077E+02
     -9.795  0.2028E+01  0.2079E+02
     -9.783  0.1693E+01  0.2081E+02
     -9.770  0.2309E+01  0.2084E+02
     -9.758  0.2038E+01  0.2087E+02
     -9.746  0.2139E+01  0.2089E+02
     -9.734  0.2293E+01  0.2092E+02
     -9.722  0.2327E+01  0.2095E+02
     -9.710  0.3650E+01  0.2099E+02
     -9.698  0.2253E+01  0.2102E+02
     -9.686  0.1899E+01  0.2104E+02
     -9.674  0.1987E+01  0.2106E+02
     -9.662  0.2298E+01  0.2109E+02
     -9.650  0.1455E+01  0.2111E+02
     -9.638  0.1680E+01  0.2113E+02
     -9.626  0.1978E+01  0.2115E+02
     -9.614  0.3471E+01  0.2120E+02
     -9.602  0.3220E+01  0.2123E+02
     -9.590  0.2151E+01  0.2126E+02
     -9.578  0.1401E+01  0.2128E+02
     -9.566  0.2034E+01  0.2130E+02
     -9.554  0.2094E+01  0.2133E+02
     -9.542  0.1726E+01  0.2135E+02
     -9.530  0.1822E+01  0.2137E+02
     -9.518  0.2787E+01  0.2140E+02
     -9.506  0.2678E+01  0.2143E+02
     -9.494  0.2191E+01  0.2146E+02
     -9.482  0.1355E+01  0.2148E+02
     -9.470  0.3889E+01  0.2152E+02
     -9.458  0.5335E+01  0.2159E+02
     -9.446  0.4619E+01  0.2164E+02
     -9.434  0.5261E+01  0.2171E+02
     -9.422  0.7289E+01  0.2179E+02
     -9.410  0.7552E+01  0.2189E+02
     -9.397  0.5936E+01  0.2196E+02
     -9.385  0.4892E+01  0.2202E+02
     -9.373  0.4536E+01  0.2207E+02
     -9.361  0.4092E+01  0.2212E+02
     -9.349  0.4692E+01  0.2218E+02
     -9.337  0.5414E+01  0.2224E+02
     -9.325  0.5194E+01  0.2230E+02
     -9.313  0.3753E+01  0.2235E+02
     -9.301  0.3039E+01  0.2239E+02
     -9.289  0.4276E+01  0.2244E+02
     -9.277  0.4253E+01  0.2249E+02
     -9.265  0.3639E+01  0.2253E+02
     -9.253  0.3034E+01  0.2257E+02
     -9.241  0.3277E+01  0.2261E+02
     -9.229  0.5190E+01  0.2267E+02
     -9.217  0.5051E+01  0.2273E+02
     -9.205  0.2701E+01  0.2276E+02
     -9.193  0.2812E+01  0.2280E+02
     -9.181  0.2599E+01  0.2283E+02
     -9.169  0.2958E+01  0.2286E+02
     -9.157  0.5397E+01  0.2293E+02
     -9.145  0.5870E+01  0.2300E+02
     -9.133  0.4694E+01  0.2306E+02
     -9.121  0.2618E+01  0.2309E+02
     -9.109  0.1743E+01  0.2311E+02
     -9.097  0.1400E+01  0.2313E+02
     -9.085  0.3562E+01  0.2317E+02
     -9.073  0.5084E+01  0.2323E+02
     -9.061  0.5499E+01  0.2330E+02
     -9.049  0.4187E+01  0.2335E+02
     -9.037  0.3664E+01  0.2339E+02
     -9.025  0.2594E+01  0.2342E+02
     -9.012  0.2099E+01  0.2345E+02
     -9.000  0.3146E+01  0.2348E+02
     -8.988  0.4966E+01  0.2354E+02
     -8.976  0.4475E+01  0.2360E+02
     -8.964  0.3269E+01  0.2364E+02
     -8.952  0.3172E+01  0.2368E+02
     -8.940  0.3072E+01  0.2371E+02
     -8.928  0.3375E+01  0.2375E+02
     -8.916  0.4344E+01  0.2381E+02
     -8.904  0.4217E+01  0.2386E+02
     -8.892  0.3790E+01  0.2390E+02
     -8.880  0.3381E+01  0.2394E+02
     -8.868  0.4785E+01  0.2400E+02
     -8.856  0.5387E+01  0.2407E+02
     -8.844  0.4020E+01  0.2411E+02
     -8.832  0.3303E+01  0.2415E+02
     -8.820  0.3779E+01  0.2420E+02
     -8.808  0.4259E+01  0.2425E+02
     -8.796  0.3476E+01  0.2429E+02
     -8.784  0.3314E+01  0.2433E+02
     -8.772  0.3404E+01  0.2437E+02
     -8.760  0.4599E+01  0.2443E+02
     -8.748  0.4932E+01  0.2449E+02
     -8.736  0.4233E+01  0.2454E+02
     -8.724  0.4234E+01  0.2459E+02
     -8.712  0.3672E+01  0.2463E+02
     -8.700  0.2127E+01  0.2466E+02
     -8.688  0.3060E+01  0.2470E+02
     -8.676  0.3149E+01  0.2473E+02
     -8.664  0.4623E+01  0.2479E+02
     -8.652  0.4381E+01  0.2484E+02
     -8.640  0.4256E+01  0.2489E+02
     -8.627  0.4234E+01  0.2494E+02
     -8.615  0.3815E+01  0.2499E+02
     -8.603  0.3129E+01  0.2503E+02
     -8.591  0.2788E+01  0.2506E+02
     -8.579  0.3056E+01  0.2510E+02
     -8.567  0.4165E+01  0.2515E+02
     -8.555  0.4671E+01  0.2520E+02
     -8.543  0.4762E+01  0.2526E+02
     -8.531  0.2952E+01  0.2530E+02
     -8.519  0.2797E+01  0.2533E+02
     -8.507  0.2791E+01  0.2536E+02
     -8.495  0.3094E+01  0.2540E+02
     -8.483  0.4275E+01  0.2545E+02
     -8.471  0.5185E+01  0.2552E+02
     -8.459  0.5294E+01  0.2558E+02
     -8.447  0.3113E+01  0.2562E+02
     -8.435  0.2528E+01  0.2565E+02
     -8.423  0.2256E+01  0.2567E+02
     -8.411  0.3101E+01  0.2571E+02
     -8.399  0.3978E+01  0.2576E+02
     -8.387  0.4365E+01  0.2581E+02
     -8.375  0.4511E+01  0.2587E+02
     -8.363  0.3504E+01  0.2591E+02
     -8.351  0.3066E+01  0.2594E+02
     -8.339  0.4287E+01  0.2600E+02
     -8.327  0.4013E+01  0.2604E+02
     -8.315  0.3174E+01  0.2608E+02
     -8.303  0.3191E+01  0.2612E+02
     -8.291  0.2449E+01  0.2615E+02
     -8.279  0.2759E+01  0.2618E+02
     -8.267  0.5549E+01  0.2625E+02
     -8.254  0.5333E+01  0.2631E+02
     -8.242  0.3103E+01  0.2635E+02
     -8.230  0.2732E+01  0.2639E+02
     -8.218  0.2787E+01  0.2642E+02
     -8.206  0.2653E+01  0.2645E+02
     -8.194  0.4841E+01  0.2651E+02
     -8.182  0.4484E+01  0.2656E+02
     -8.170  0.3403E+01  0.2660E+02
     -8.158  0.3944E+01  0.2665E+02
     -8.146  0.2831E+01  0.2669E+02
     -8.134  0.2452E+01  0.2671E+02
     -8.122  0.5332E+01  0.2678E+02
     -8.110  0.3788E+01  0.2682E+02
     -8.098  0.2713E+01  0.2686E+02
     -8.086  0.3528E+01  0.2690E+02
     -8.074  0.3794E+01  0.2695E+02
     -8.062  0.5505E+01  0.2701E+02
     -8.050  0.5784E+01  0.2708E+02
     -8.038  0.3403E+01  0.2712E+02
     -8.026  0.2663E+01  0.2715E+02
     -8.014  0.2434E+01  0.2718E+02
     -8.002  0.3865E+01  0.2723E+02
     -7.990  0.6513E+01  0.2731E+02
     -7.978  0.5233E+01  0.2737E+02
     -7.966  0.3376E+01  0.2741E+02
     -7.954  0.2970E+01  0.2745E+02
     -7.942  0.4228E+01  0.2750E+02
     -7.930  0.5933E+01  0.2757E+02
     -7.918  0.4280E+01  0.2762E+02
     -7.906  0.2837E+01  0.2766E+02
     -7.894  0.3479E+01  0.2770E+02
     -7.882  0.5113E+01  0.2776E+02
     -7.869  0.6375E+01  0.2784E+02
     -7.857  0.5226E+01  0.2790E+02
     -7.845  0.4228E+01  0.2795E+02
     -7.833  0.4679E+01  0.2801E+02
     -7.821  0.4025E+01  0.2805E+02
     -7.809  0.4955E+01  0.2811E+02
     -7.797  0.6013E+01  0.2819E+02
     -7.785  0.4912E+01  0.2824E+02
     -7.773  0.4968E+01  0.2830E+02
     -7.761  0.6349E+01  0.2838E+02
     -7.749  0.5742E+01  0.2845E+02
     -7.737  0.4569E+01  0.2851E+02
     -7.725  0.3859E+01  0.2855E+02
     -7.713  0.4612E+01  0.2861E+02
     -7.701  0.5557E+01  0.2867E+02
     -7.689  0.4729E+01  0.2873E+02
     -7.677  0.4154E+01  0.2878E+02
     -7.665  0.4674E+01  0.2884E+02
     -7.653  0.5448E+01  0.2890E+02
     -7.641  0.5327E+01  0.2897E+02
     -7.629  0.4549E+01  0.2902E+02
     -7.617  0.4472E+01  0.2908E+02
     -7.605  0.4899E+01  0.2913E+02
     -7.593  0.4458E+01  0.2919E+02
     -7.581  0.4445E+01  0.2924E+02
     -7.569  0.5506E+01  0.2931E+02
     -7.557  0.5362E+01  0.2937E+02
     -7.545  0.4851E+01  0.2943E+02
     -7.533  0.5101E+01  0.2949E+02
     -7.521  0.4787E+01  0.2955E+02
     -7.509  0.4636E+01  0.2961E+02
     -7.497  0.4403E+01  0.2966E+02
     -7.484  0.5439E+01  0.2972E+02
     -7.472  0.6429E+01  0.2980E+02
     -7.460  0.5069E+01  0.2986E+02
     -7.448  0.4476E+01  0.2992E+02
     -7.436  0.4272E+01  0.2997E+02
     -7.424  0.5738E+01  0.3004E+02
     -7.412  0.5310E+01  0.3010E+02
     -7.400  0.2749E+01  0.3013E+02
     -7.388  0.2940E+01  0.3017E+02
     -7.376  0.3829E+01  0.3021E+02
     -7.364  0.4141E+01  0.3026E+02
     -7.352  0.4007E+01  0.3031E+02
     -7.340  0.4370E+01  0.3037E+02
     -7.328  0.4156E+01  0.3042E+02
     -7.316  0.3085E+01  0.3045E+02
     -7.304  0.3889E+01  0.3050E+02
     -7.292  0.3648E+01  0.3054E+02
     -7.280  0.3604E+01  0.3059E+02
     -7.268  0.4287E+01  0.3064E+02
     -7.256  0.4985E+01  0.3070E+02
     -7.244  0.5236E+01  0.3076E+02
     -7.232  0.3560E+01  0.3080E+02
     -7.220  0.3473E+01  0.3085E+02
     -7.208  0.3729E+01  0.3089E+02
     -7.196  0.4325E+01  0.3094E+02
     -7.184  0.5247E+01  0.3101E+02
     -7.172  0.5996E+01  0.3108E+02
     -7.160  0.3833E+01  0.3112E+02
     -7.148  0.3398E+01  0.3116E+02
     -7.136  0.3972E+01  0.3121E+02
     -7.124  0.4444E+01  0.3127E+02
     -7.111  0.4597E+01  0.3132E+02
     -7.099  0.5232E+01  0.3138E+02
     -7.087  0.4991E+01  0.3144E+02
     -7.075  0.4092E+01  0.3149E+02
     -7.063  0.4545E+01  0.3155E+02
     -7.051  0.5364E+01  0.3161E+02
     -7.039  0.5238E+01  0.3168E+02
     -7.027  0.4273E+01  0.3173E+02
     -7.015  0.4201E+01  0.3178E+02
     -7.003  0.4124E+01  0.3183E+02
     -6.991  0.5618E+01  0.3190E+02
     -6.979  0.6397E+01  0.3197E+02
     -6.967  0.6016E+01  0.3204E+02
     -6.955  0.4266E+01  0.3210E+02
     -6.943  0.3710E+01  0.3214E+02
     -6.931  0.5005E+01  0.3220E+02
     -6.919  0.5802E+01  0.3227E+02
     -6.907  0.6645E+01  0.3235E+02
     -6.895  0.6165E+01  0.3242E+02
     -6.883  0.6112E+01  0.3250E+02
     -6.871  0.5875E+01  0.3257E+02
     -6.859  0.6041E+01  0.3264E+02
     -6.847  0.6455E+01  0.3272E+02
     -6.835  0.6193E+01  0.3279E+02
     -6.823  0.6264E+01  0.3287E+02
     -6.811  0.6151E+01  0.3294E+02
     -6.799  0.5993E+01  0.3302E+02
     -6.787  0.6463E+01  0.3309E+02
     -6.775  0.6003E+01  0.3317E+02
     -6.763  0.5525E+01  0.3323E+02
     -6.751  0.5342E+01  0.3330E+02
     -6.739  0.4533E+01  0.3335E+02
     -6.726  0.6846E+01  0.3343E+02
     -6.714  0.6117E+01  0.3351E+02
     -6.702  0.4415E+01  0.3356E+02
     -6.690  0.5514E+01  0.3363E+02
     -6.678  0.6017E+01  0.3370E+02
     -6.666  0.5681E+01  0.3377E+02
     -6.654  0.5794E+01  0.3384E+02
     -6.642  0.5391E+01  0.3390E+02
     -6.630  0.5046E+01  0.3396E+02
     -6.618  0.6110E+01  0.3404E+02
     -6.606  0.6632E+01  0.3412E+02
     -6.594  0.5456E+01  0.3418E+02
     -6.582  0.4950E+01  0.3424E+02
     -6.570  0.5379E+01  0.3430E+02
     -6.558  0.4583E+01  0.3436E+02
     -6.546  0.5070E+01  0.3442E+02
     -6.534  0.5985E+01  0.3449E+02
     -6.522  0.5884E+01  0.3456E+02
     -6.510  0.6303E+01  0.3464E+02
     -6.498  0.8074E+01  0.3474E+02
     -6.486  0.6346E+01  0.3481E+02
     -6.474  0.6568E+01  0.3489E+02
     -6.462  0.7466E+01  0.3498E+02
     -6.450  0.7555E+01  0.3507E+02
     -6.438  0.6688E+01  0.3515E+02
     -6.426  0.7126E+01  0.3524E+02
     -6.414  0.8758E+01  0.3534E+02
     -6.402  0.8523E+01  0.3545E+02
     -6.390  0.7501E+01  0.3554E+02
     -6.378  0.7408E+01  0.3563E+02
     -6.366  0.7689E+01  0.3572E+02
     -6.354  0.7232E+01  0.3581E+02
     -6.341  0.7959E+01  0.3590E+02
     -6.329  0.8762E+01  0.3601E+02
     -6.317  0.1050E+02  0.3613E+02
     -6.305  0.9490E+01  0.3625E+02
     -6.293  0.7745E+01  0.3634E+02
     -6.281  0.8220E+01  0.3644E+02
     -6.269  0.7059E+01  0.3652E+02
     -6.257  0.6924E+01  0.3661E+02
     -6.245  0.6672E+01  0.3669E+02
     -6.233  0.4534E+01  0.3674E+02
     -6.221  0.4593E+01  0.3680E+02
     -6.209  0.4977E+01  0.3686E+02
     -6.197  0.3802E+01  0.3690E+02
     -6.185  0.3757E+01  0.3695E+02
     -6.173  0.3789E+01  0.3699E+02
     -6.161  0.4151E+01  0.3704E+02
     -6.149  0.4786E+01  0.3710E+02
     -6.137  0.4171E+01  0.3715E+02
     -6.125  0.4442E+01  0.3721E+02
     -6.113  0.4160E+01  0.3726E+02
     -6.101  0.2545E+01  0.3729E+02
     -6.089  0.3328E+01  0.3733E+02
     -6.077  0.5574E+01  0.3739E+02
     -6.065  0.4571E+01  0.3745E+02
     -6.053  0.4259E+01  0.3750E+02
     -6.041  0.4222E+01  0.3755E+02
     -6.029  0.4127E+01  0.3760E+02
     -6.017  0.3466E+01  0.3764E+02
     -6.005  0.3586E+01  0.3769E+02
     -5.993  0.3789E+01  0.3773E+02
     -5.981  0.4270E+01  0.3778E+02
     -5.969  0.3932E+01  0.3783E+02
     -5.956  0.4264E+01  0.3788E+02
     -5.944  0.4497E+01  0.3793E+02
     -5.932  0.4019E+01  0.3798E+02
     -5.920  0.4157E+01  0.3803E+02
     -5.908  0.3941E+01  0.3808E+02
     -5.896  0.3210E+01  0.3812E+02
     -5.884  0.4564E+01  0.3817E+02
     -5.872  0.4358E+01  0.3823E+02
     -5.860  0.3020E+01  0.3826E+02
     -5.848  0.3610E+01  0.3831E+02
     -5.836  0.4526E+01  0.3836E+02
     -5.824  0.4831E+01  0.3842E+02
     -5.812  0.4405E+01  0.3847E+02
     -5.800  0.3792E+01  0.3852E+02
     -5.788  0.3104E+01  0.3855E+02
     -5.776  0.4449E+01  0.3861E+02
     -5.764  0.4339E+01  0.3866E+02
     -5.752  0.3514E+01  0.3870E+02
     -5.740  0.4254E+01  0.3875E+02
     -5.728  0.4247E+01  0.3881E+02
     -5.716  0.4160E+01  0.3886E+02
     -5.704  0.4011E+01  0.3890E+02
     -5.692  0.3583E+01  0.3895E+02
     -5.680  0.4553E+01  0.3900E+02
     -5.668  0.4531E+01  0.3906E+02
     -5.656  0.4466E+01  0.3911E+02
     -5.644  0.4568E+01  0.3916E+02
     -5.632  0.4866E+01  0.3922E+02
     -5.620  0.4938E+01  0.3928E+02
     -5.608  0.4243E+01  0.3933E+02
     -5.596  0.4920E+01  0.3939E+02
     -5.583  0.3780E+01  0.3944E+02
     -5.571  0.2499E+01  0.3947E+02
     -5.559  0.2376E+01  0.3950E+02
     -5.547  0.2440E+01  0.3953E+02
     -5.535  0.4016E+01  0.3957E+02
     -5.523  0.4101E+01  0.3962E+02
     -5.511  0.3811E+01  0.3967E+02
     -5.499  0.2679E+01  0.3970E+02
     -5.487  0.2611E+01  0.3973E+02
     -5.475  0.2094E+01  0.3976E+02
     -5.463  0.1995E+01  0.3978E+02
     -5.451  0.2219E+01  0.3981E+02
     -5.439  0.2841E+01  0.3984E+02
     -5.427  0.2852E+01  0.3988E+02
     -5.415  0.2884E+01  0.3991E+02
     -5.403  0.3346E+01  0.3995E+02
     -5.391  0.3509E+01  0.3999E+02
     -5.379  0.3402E+01  0.4004E+02
     -5.367  0.3889E+01  0.4008E+02
     -5.355  0.3795E+01  0.4013E+02
     -5.343  0.3059E+01  0.4017E+02
     -5.331  0.3666E+01  0.4021E+02
     -5.319  0.3834E+01  0.4026E+02
     -5.307  0.3678E+01  0.4030E+02
     -5.295  0.4160E+01  0.4035E+02
     -5.283  0.4487E+01  0.4040E+02
     -5.271  0.3640E+01  0.4045E+02
     -5.259  0.3090E+01  0.4048E+02
     -5.247  0.4032E+01  0.4053E+02
     -5.235  0.4420E+01  0.4059E+02
     -5.223  0.4884E+01  0.4065E+02
     -5.211  0.5116E+01  0.4071E+02
     -5.198  0.5589E+01  0.4077E+02
     -5.186  0.4102E+01  0.4082E+02
     -5.174  0.3635E+01  0.4087E+02
     -5.162  0.3918E+01  0.4091E+02
     -5.150  0.3649E+01  0.4096E+02
     -5.138  0.4120E+01  0.4101E+02
     -5.126  0.5526E+01  0.4107E+02
     -5.114  0.6228E+01  0.4115E+02
     -5.102  0.4883E+01  0.4121E+02
     -5.090  0.3860E+01  0.4125E+02
     -5.078  0.3978E+01  0.4130E+02
     -5.066  0.2276E+01  0.4133E+02
     -5.054  0.2802E+01  0.4136E+02
     -5.042  0.4360E+01  0.4142E+02
     -5.030  0.3778E+01  0.4146E+02
     -5.018  0.3307E+01  0.4150E+02
     -5.006  0.3387E+01  0.4154E+02
     -4.994  0.3724E+01  0.4159E+02
     -4.982  0.3128E+01  0.4162E+02
     -4.970  0.3705E+01  0.4167E+02
     -4.958  0.3452E+01  0.4171E+02
     -4.946  0.2749E+01  0.4174E+02
     -4.934  0.2646E+01  0.4178E+02
     -4.922  0.3544E+01  0.4182E+02
     -4.910  0.3662E+01  0.4186E+02
     -4.898  0.3685E+01  0.4191E+02
     -4.886  0.4624E+01  0.4196E+02
     -4.874  0.4926E+01  0.4202E+02
     -4.862  0.4849E+01  0.4208E+02
     -4.850  0.3602E+01  0.4212E+02
     -4.838  0.2536E+01  0.4215E+02
     -4.826  0.2240E+01  0.4218E+02
     -4.813  0.4111E+01  0.4223E+02
     -4.801  0.5059E+01  0.4229E+02
     -4.789  0.4002E+01  0.4234E+02
     -4.777  0.3673E+01  0.4238E+02
     -4.765  0.3060E+01  0.4242E+02
     -4.753  0.3647E+01  0.4246E+02
     -4.741  0.3568E+01  0.4251E+02
     -4.729  0.2977E+01  0.4254E+02
     -4.717  0.3491E+01  0.4258E+02
     -4.705  0.4533E+01  0.4264E+02
     -4.693  0.3619E+01  0.4268E+02
     -4.681  0.3418E+01  0.4272E+02
     -4.669  0.3210E+01  0.4276E+02
     -4.657  0.2227E+01  0.4279E+02
     -4.645  0.3383E+01  0.4283E+02
     -4.633  0.4840E+01  0.4289E+02
     -4.621  0.4668E+01  0.4294E+02
     -4.609  0.3339E+01  0.4298E+02
     -4.597  0.2048E+01  0.4301E+02
     -4.585  0.2831E+01  0.4304E+02
     -4.573  0.3649E+01  0.4309E+02
     -4.561  0.3494E+01  0.4313E+02
     -4.549  0.3915E+01  0.4318E+02
     -4.537  0.4713E+01  0.4323E+02
     -4.525  0.3578E+01  0.4328E+02
     -4.513  0.2648E+01  0.4331E+02
     -4.501  0.2928E+01  0.4334E+02
     -4.489  0.3376E+01  0.4338E+02
     -4.477  0.2897E+01  0.4342E+02
     -4.465  0.3343E+01  0.4346E+02
     -4.453  0.3868E+01  0.4350E+02
     -4.440  0.2865E+01  0.4354E+02
     -4.428  0.3926E+01  0.4359E+02
     -4.416  0.4058E+01  0.4364E+02
     -4.404  0.3049E+01  0.4367E+02
     -4.392  0.3694E+01  0.4372E+02
     -4.380  0.4263E+01  0.4377E+02
     -4.368  0.4254E+01  0.4382E+02
     -4.356  0.3906E+01  0.4387E+02
     -4.344  0.3637E+01  0.4391E+02
     -4.332  0.3853E+01  0.4396E+02
     -4.320  0.4048E+01  0.4400E+02
     -4.308  0.4953E+01  0.4406E+02
     -4.296  0.4943E+01  0.4412E+02
     -4.284  0.4271E+01  0.4418E+02
     -4.272  0.4595E+01  0.4423E+02
     -4.260  0.4434E+01  0.4428E+02
     -4.248  0.5474E+01  0.4435E+02
     -4.236  0.5734E+01  0.4442E+02
     -4.224  0.6600E+01  0.4450E+02
     -4.212  0.6480E+01  0.4458E+02
     -4.200  0.4196E+01  0.4463E+02
     -4.188  0.4434E+01  0.4468E+02
     -4.176  0.4127E+01  0.4473E+02
     -4.164  0.5893E+01  0.4480E+02
     -4.152  0.6612E+01  0.4488E+02
     -4.140  0.5100E+01  0.4494E+02
     -4.128  0.4363E+01  0.4499E+02
     -4.116  0.4523E+01  0.4505E+02
     -4.104  0.6059E+01  0.4512E+02
     -4.092  0.6453E+01  0.4520E+02
     -4.080  0.4888E+01  0.4526E+02
     -4.068  0.5036E+01  0.4532E+02
     -4.055  0.5497E+01  0.4538E+02
     -4.043  0.5397E+01  0.4545E+02
     -4.031  0.5887E+01  0.4552E+02
     -4.019  0.6617E+01  0.4560E+02
     -4.007  0.6503E+01  0.4568E+02
     -3.995  0.5942E+01  0.4575E+02
     -3.983  0.5036E+01  0.4581E+02
     -3.971  0.5631E+01  0.4588E+02
     -3.959  0.5286E+01  0.4594E+02
     -3.947  0.6344E+01  0.4602E+02
     -3.935  0.5935E+01  0.4609E+02
     -3.923  0.4012E+01  0.4614E+02
     -3.911  0.4756E+01  0.4619E+02
     -3.899  0.6171E+01  0.4627E+02
     -3.887  0.4366E+01  0.4632E+02
     -3.875  0.3687E+01  0.4637E+02
     -3.863  0.4584E+01  0.4642E+02
     -3.851  0.5183E+01  0.4648E+02
     -3.839  0.4452E+01  0.4654E+02
     -3.827  0.5103E+01  0.4660E+02
     -3.815  0.6373E+01  0.4668E+02
     -3.803  0.7377E+01  0.4676E+02
     -3.791  0.6788E+01  0.4685E+02
     -3.779  0.5918E+01  0.4692E+02
     -3.767  0.6282E+01  0.4699E+02
     -3.755  0.6705E+01  0.4707E+02
     -3.743  0.6063E+01  0.4715E+02
     -3.731  0.5981E+01  0.4722E+02
     -3.719  0.6308E+01  0.4729E+02
     -3.707  0.6181E+01  0.4737E+02
     -3.695  0.7535E+01  0.4746E+02
     -3.683  0.8391E+01  0.4756E+02
     -3.670  0.6799E+01  0.4764E+02
     -3.658  0.6392E+01  0.4772E+02
     -3.646  0.6984E+01  0.4780E+02
     -3.634  0.7753E+01  0.4790E+02
     -3.622  0.7189E+01  0.4798E+02
     -3.610  0.8113E+01  0.4808E+02
     -3.598  0.9385E+01  0.4819E+02
     -3.586  0.8449E+01  0.4829E+02
     -3.574  0.1061E+02  0.4842E+02
     -3.562  0.1430E+02  0.4859E+02
     -3.550  0.8254E+01  0.4869E+02
     -3.538  0.4230E+01  0.4874E+02
     -3.526  0.5147E+01  0.4881E+02
     -3.514  0.5224E+01  0.4887E+02
     -3.502  0.4078E+01  0.4892E+02
     -3.490  0.3440E+01  0.4896E+02
     -3.478  0.3129E+01  0.4900E+02
     -3.466  0.3867E+01  0.4904E+02
     -3.454  0.4234E+01  0.4909E+02
     -3.442  0.4175E+01  0.4914E+02
     -3.430  0.3851E+01  0.4919E+02
     -3.418  0.2981E+01  0.4923E+02
     -3.406  0.3361E+01  0.4927E+02
     -3.394  0.4152E+01  0.4932E+02
     -3.382  0.3388E+01  0.4936E+02
     -3.370  0.2396E+01  0.4939E+02
     -3.358  0.3630E+01  0.4943E+02
     -3.346  0.3590E+01  0.4947E+02
     -3.334  0.3250E+01  0.4951E+02
     -3.322  0.3678E+01  0.4956E+02
     -3.310  0.3449E+01  0.4960E+02
     -3.297  0.2837E+01  0.4963E+02
     -3.285  0.3861E+01  0.4968E+02
     -3.273  0.3888E+01  0.4973E+02
     -3.261  0.2874E+01  0.4976E+02
     -3.249  0.2685E+01  0.4979E+02
     -3.237  0.3238E+01  0.4983E+02
     -3.225  0.2459E+01  0.4986E+02
     -3.213  0.2753E+01  0.4989E+02
     -3.201  0.4444E+01  0.4995E+02
     -3.189  0.3620E+01  0.4999E+02
     -3.177  0.2894E+01  0.5003E+02
     -3.165  0.3030E+01  0.5006E+02
     -3.153  0.3520E+01  0.5011E+02
     -3.141  0.3778E+01  0.5015E+02
     -3.129  0.2322E+01  0.5018E+02
     -3.117  0.2248E+01  0.5021E+02
     -3.105  0.3442E+01  0.5025E+02
     -3.093  0.2492E+01  0.5028E+02
     -3.081  0.3274E+01  0.5032E+02
     -3.069  0.4138E+01  0.5037E+02
     -3.057  0.2969E+01  0.5040E+02
     -3.045  0.3952E+01  0.5045E+02
     -3.033  0.3941E+01  0.5050E+02
     -3.021  0.2783E+01  0.5053E+02
     -3.009  0.2103E+01  0.5056E+02
     -2.997  0.2947E+01  0.5059E+02
     -2.985  0.3107E+01  0.5063E+02
     -2.973  0.2743E+01  0.5066E+02
     -2.961  0.3078E+01  0.5070E+02
     -2.949  0.4016E+01  0.5075E+02
     -2.937  0.4066E+01  0.5080E+02
     -2.925  0.3676E+01  0.5084E+02
     -2.912  0.3788E+01  0.5089E+02
     -2.900  0.3715E+01  0.5093E+02
     -2.888  0.2941E+01  0.5097E+02
     -2.876  0.2918E+01  0.5100E+02
     -2.864  0.3152E+01  0.5104E+02
     -2.852  0.3500E+01  0.5108E+02
     -2.840  0.4396E+01  0.5113E+02
     -2.828  0.5107E+01  0.5120E+02
     -2.816  0.4008E+01  0.5124E+02
     -2.804  0.4266E+01  0.5129E+02
     -2.792  0.3538E+01  0.5134E+02
     -2.780  0.2795E+01  0.5137E+02
     -2.768  0.3167E+01  0.5141E+02
     -2.756  0.3800E+01  0.5145E+02
     -2.744  0.3175E+01  0.5149E+02
     -2.732  0.2338E+01  0.5152E+02
     -2.720  0.1721E+01  0.5154E+02
     -2.708  0.1917E+01  0.5156E+02
     -2.696  0.3054E+01  0.5160E+02
     -2.684  0.4122E+01  0.5165E+02
     -2.672  0.3978E+01  0.5170E+02
     -2.660  0.3260E+01  0.5174E+02
     -2.648  0.2420E+01  0.5177E+02
     -2.636  0.1546E+01  0.5179E+02
     -2.624  0.1789E+01  0.5181E+02
     -2.612  0.2325E+01  0.5184E+02
     -2.600  0.2353E+01  0.5186E+02
     -2.588  0.2206E+01  0.5189E+02
     -2.576  0.2489E+01  0.5192E+02
     -2.564  0.4846E+01  0.5198E+02
     -2.552  0.5349E+01  0.5204E+02
     -2.540  0.3424E+01  0.5208E+02
     -2.527  0.3175E+01  0.5212E+02
     -2.515  0.3006E+01  0.5216E+02
     -2.503  0.1712E+01  0.5218E+02
     -2.491  0.1467E+01  0.5220E+02
     -2.479  0.2288E+01  0.5222E+02
     -2.467  0.2702E+01  0.5226E+02
     -2.455  0.3125E+01  0.5229E+02
     -2.443  0.4528E+01  0.5235E+02
     -2.431  0.4632E+01  0.5240E+02
     -2.419  0.1985E+01  0.5243E+02
     -2.407  0.1944E+01  0.5245E+02
     -2.395  0.2109E+01  0.5248E+02
     -2.383  0.2269E+01  0.5250E+02
     -2.371  0.2004E+01  0.5253E+02
     -2.359  0.2412E+01  0.5256E+02
     -2.347  0.2691E+01  0.5259E+02
     -2.335  0.2970E+01  0.5263E+02
     -2.323  0.3486E+01  0.5267E+02
     -2.311  0.3964E+01  0.5272E+02
     -2.299  0.2560E+01  0.5275E+02
     -2.287  0.1787E+01  0.5277E+02
     -2.275  0.2748E+01  0.5280E+02
     -2.263  0.2966E+01  0.5284E+02
     -2.251  0.2181E+01  0.5286E+02
     -2.239  0.2399E+01  0.5289E+02
     -2.227  0.1983E+01  0.5292E+02
     -2.215  0.1761E+01  0.5294E+02
     -2.203  0.2811E+01  0.5297E+02
     -2.191  0.3670E+01  0.5301E+02
     -2.179  0.3403E+01  0.5306E+02
     -2.167  0.2305E+01  0.5308E+02
     -2.155  0.1910E+01  0.5311E+02
     -2.142  0.2121E+01  0.5313E+02
     -2.130  0.2582E+01  0.5316E+02
     -2.118  0.2432E+01  0.5319E+02
     -2.106  0.1711E+01  0.5321E+02
     -2.094  0.2366E+01  0.5324E+02
     -2.082  0.2569E+01  0.5327E+02
     -2.070  0.3201E+01  0.5331E+02
     -2.058  0.2709E+01  0.5334E+02
     -2.046  0.2350E+01  0.5337E+02
     -2.034  0.2987E+01  0.5341E+02
     -2.022  0.2097E+01  0.5343E+02
     -2.010  0.2470E+01  0.5346E+02
     -1.998  0.3065E+01  0.5350E+02
     -1.986  0.1270E+01  0.5351E+02
     -1.974  0.6844E+00  0.5352E+02
     -1.962  0.1716E+01  0.5354E+02
     -1.950  0.1683E+01  0.5356E+02
     -1.938  0.1562E+01  0.5358E+02
     -1.926  0.1606E+01  0.5360E+02
     -1.914  0.1055E+01  0.5361E+02
     -1.902  0.1782E+01  0.5364E+02
     -1.890  0.3170E+01  0.5367E+02
     -1.878  0.2818E+01  0.5371E+02
     -1.866  0.2198E+01  0.5373E+02
     -1.854  0.2289E+01  0.5376E+02
     -1.842  0.1768E+01  0.5378E+02
     -1.830  0.1796E+01  0.5380E+02
     -1.818  0.2103E+01  0.5383E+02
     -1.806  0.2659E+01  0.5386E+02
     -1.794  0.3176E+01  0.5390E+02
     -1.782  0.2409E+01  0.5393E+02
     -1.769  0.2079E+01  0.5395E+02
     -1.757  0.1890E+01  0.5398E+02
     -1.745  0.1525E+01  0.5400E+02
     -1.733  0.1498E+01  0.5401E+02
     -1.721  0.2019E+01  0.5404E+02
     -1.709  0.1643E+01  0.5406E+02
     -1.697  0.2515E+01  0.5409E+02
     -1.685  0.2550E+01  0.5412E+02
     -1.673  0.2569E+01  0.5415E+02
     -1.661  0.2166E+01  0.5418E+02
     -1.649  0.1981E+01  0.5420E+02
     -1.637  0.1509E+01  0.5422E+02
     -1.625  0.1404E+01  0.5423E+02
     -1.613  0.1724E+01  0.5426E+02
     -1.601  0.1816E+01  0.5428E+02
     -1.589  0.2232E+01  0.5430E+02
     -1.577  0.2733E+01  0.5434E+02
     -1.565  0.1947E+01  0.5436E+02
     -1.553  0.1708E+01  0.5438E+02
     -1.541  0.1855E+01  0.5440E+02
     -1.529  0.2152E+01  0.5443E+02
     -1.517  0.1849E+01  0.5445E+02
     -1.505  0.1209E+01  0.5447E+02
     -1.493  0.1845E+01  0.5449E+02
     -1.481  0.2059E+01  0.5451E+02
     -1.469  0.1504E+01  0.5453E+02
     -1.457  0.1446E+01  0.5455E+02
     -1.445  0.1609E+01  0.5457E+02
     -1.433  0.2206E+01  0.5459E+02
     -1.421  0.1740E+01  0.5461E+02
     -1.409  0.1799E+01  0.5464E+02
     -1.397  0.1511E+01  0.5465E+02
     -1.384  0.1662E+01  0.5467E+02
     -1.372  0.1635E+01  0.5469E+02
     -1.360  0.1737E+01  0.5472E+02
     -1.348  0.1757E+01  0.5474E+02
     -1.336  0.1211E+01  0.5475E+02
     -1.324  0.1698E+01  0.5477E+02
     -1.312  0.2034E+01  0.5480E+02
     -1.300  0.2364E+01  0.5482E+02
     -1.288  0.1759E+01  0.5485E+02
     -1.276  0.1381E+01  0.5486E+02
     -1.264  0.1666E+01  0.5488E+02
     -1.252  0.1710E+01  0.5490E+02
     -1.240  0.1890E+01  0.5493E+02
     -1.228  0.1571E+01  0.5494E+02
     -1.216  0.1887E+01  0.5497E+02
     -1.204  0.2229E+01  0.5499E+02
     -1.192  0.1816E+01  0.5502E+02
     -1.180  0.2007E+01  0.5504E+02
     -1.168  0.2776E+01  0.5507E+02
     -1.156  0.2484E+01  0.5510E+02
     -1.144  0.2078E+01  0.5513E+02
     -1.132  0.2010E+01  0.5515E+02
     -1.120  0.1445E+01  0.5517E+02
     -1.108  0.1268E+01  0.5519E+02
     -1.096  0.2069E+01  0.5521E+02
     -1.084  0.2352E+01  0.5524E+02
     -1.072  0.1655E+01  0.5526E+02
     -1.060  0.1361E+01  0.5527E+02
     -1.048  0.1488E+01  0.5529E+02
     -1.036  0.1530E+01  0.5531E+02
     -1.024  0.1158E+01  0.5532E+02
     -1.012  0.1296E+01  0.5534E+02
     -0.999  0.1037E+01  0.5535E+02
     -0.987  0.1628E+01  0.5537E+02
     -0.975  0.1794E+01  0.5539E+02
     -0.963  0.1379E+01  0.5541E+02
     -0.951  0.8521E+00  0.5542E+02
     -0.939  0.1208E+01  0.5544E+02
     -0.927  0.1289E+01  0.5545E+02
     -0.915  0.1039E+01  0.5546E+02
     -0.903  0.1110E+01  0.5548E+02
     -0.891  0.1211E+01  0.5549E+02
     -0.879  0.1223E+01  0.5551E+02
     -0.867  0.1198E+01  0.5552E+02
     -0.855  0.8315E+00  0.5553E+02
     -0.843  0.8385E+00  0.5554E+02
     -0.831  0.1360E+01  0.5556E+02
     -0.819  0.1337E+01  0.5557E+02
     -0.807  0.5546E+00  0.5558E+02
     -0.795  0.7510E+00  0.5559E+02
     -0.783  0.1204E+01  0.5560E+02
     -0.771  0.1079E+01  0.5562E+02
     -0.759  0.7827E+00  0.5563E+02
     -0.747  0.8252E+00  0.5564E+02
     -0.735  0.8795E+00  0.5565E+02
     -0.723  0.1236E+01  0.5566E+02
     -0.711  0.6965E+00  0.5567E+02
     -0.699  0.4842E+00  0.5568E+02
     -0.687  0.7623E+00  0.5568E+02
     -0.675  0.9979E+00  0.5570E+02
     -0.663  0.1145E+01  0.5571E+02
     -0.651  0.6396E+00  0.5572E+02
     -0.639  0.6915E+00  0.5573E+02
     -0.626  0.7572E+00  0.5574E+02
     -0.614  0.4653E+00  0.5574E+02
     -0.602  0.5657E+00  0.5575E+02
     -0.590  0.7379E+00  0.5576E+02
     -0.578  0.1191E+01  0.5577E+02
     -0.566  0.8867E+00  0.5578E+02
     -0.554  0.3301E+00  0.5579E+02
     -0.542  0.3677E+00  0.5579E+02
     -0.530  0.5981E+00  0.5580E+02
     -0.518  0.7981E+00  0.5581E+02
     -0.506  0.7072E+00  0.5582E+02
     -0.494  0.5206E+00  0.5582E+02
     -0.482  0.7143E+00  0.5583E+02
     -0.470  0.7167E+00  0.5584E+02
     -0.458  0.4743E+00  0.5584E+02
     -0.446  0.6675E+00  0.5585E+02
     -0.434  0.7679E+00  0.5586E+02
     -0.422  0.6739E+00  0.5587E+02
     -0.410  0.3288E+00  0.5587E+02
     -0.398  0.6687E+00  0.5588E+02
     -0.386  0.1121E+01  0.5590E+02
     -0.374  0.5492E+00  0.5590E+02
     -0.362  0.2729E+00  0.5591E+02
     -0.350  0.1268E+01  0.5592E+02
     -0.338  0.1310E+01  0.5594E+02
     -0.326  0.1043E+01  0.5595E+02
     -0.314  0.1718E+01  0.5597E+02
     -0.302  0.2169E+01  0.5600E+02
     -0.290  0.1434E+01  0.5601E+02
     -0.278  0.3273E+00  0.5602E+02
     -0.266  0.2456E-01  0.5602E+02
     -0.254  0.3893E-01  0.5602E+02
     -0.241  0.1544E+00  0.5602E+02
     -0.229  0.2384E+00  0.5602E+02
     -0.217  0.2789E+00  0.5603E+02
     -0.205  0.1264E+00  0.5603E+02
     -0.193  0.1321E+00  0.5603E+02
     -0.181  0.1446E+00  0.5603E+02
     -0.169  0.3294E+00  0.5603E+02
     -0.157  0.2053E+00  0.5604E+02
     -0.145  0.5705E-01  0.5604E+02
     -0.133  0.1951E+00  0.5604E+02
     -0.121  0.2591E+00  0.5604E+02
     -0.109  0.4096E+00  0.5605E+02
     -0.097  0.8356E+00  0.5606E+02
     -0.085  0.7860E+00  0.5607E+02
     -0.073  0.1146E+01  0.5608E+02
     -0.061  0.1526E+01  0.5610E+02
     -0.049  0.1034E+01  0.5611E+02
     -0.037  0.6649E+00  0.5612E+02
     -0.025  0.8326E+00  0.5613E+02
     -0.013  0.1690E+01  0.5615E+02
     -0.001  0.2001E+01  0.5617E+02
      0.011  0.1694E+01  0.5619E+02
      0.023  0.1215E+01  0.5621E+02
      0.035  0.8525E+00  0.5622E+02
      0.047  0.1035E+01  0.5623E+02
      0.059  0.1155E+01  0.5625E+02
      0.071  0.1162E+01  0.5626E+02
      0.083  0.1602E+01  0.5628E+02
      0.095  0.1955E+01  0.5630E+02
      0.107  0.2075E+01  0.5633E+02
      0.119  0.1628E+01  0.5635E+02
      0.131  0.1212E+01  0.5636E+02
      0.144  0.1347E+01  0.5638E+02
      0.156  0.1279E+01  0.5639E+02
      0.168  0.1423E+01  0.5641E+02
      0.180  0.9342E+00  0.5642E+02
      0.192  0.1644E+01  0.5644E+02
      0.204  0.2346E+01  0.5647E+02
      0.216  0.2397E+01  0.5650E+02
      0.228  0.1997E+01  0.5652E+02
      0.240  0.1717E+01  0.5654E+02
      0.252  0.1626E+01  0.5656E+02
      0.264  0.1498E+01  0.5658E+02
      0.276  0.1499E+01  0.5660E+02
      0.288  0.1645E+01  0.5662E+02
      0.300  0.1841E+01  0.5664E+02
      0.312  0.1752E+01  0.5666E+02
      0.324  0.2070E+01  0.5669E+02
      0.336  0.2660E+01  0.5672E+02
      0.348  0.2490E+01  0.5675E+02
      0.360  0.3061E+01  0.5679E+02
      0.372  0.2501E+01  0.5682E+02
      0.384  0.2155E+01  0.5684E+02
      0.396  0.2427E+01  0.5687E+02
      0.408  0.2169E+01  0.5690E+02
      0.420  0.2116E+01  0.5692E+02
      0.432  0.2157E+01  0.5695E+02
      0.444  0.2080E+01  0.5697E+02
      0.456  0.2117E+01  0.5700E+02
      0.468  0.3107E+01  0.5704E+02
      0.480  0.2960E+01  0.5707E+02
      0.492  0.2635E+01  0.5710E+02
      0.504  0.2160E+01  0.5713E+02
      0.517  0.1462E+01  0.5715E+02
      0.529  0.1510E+01  0.5717E+02
      0.541  0.1847E+01  0.5719E+02
      0.553  0.1967E+01  0.5721E+02
      0.565  0.1640E+01  0.5723E+02
      0.577  0.1545E+01  0.5725E+02
      0.589  0.2485E+01  0.5728E+02
      0.601  0.2372E+01  0.5731E+02
      0.613  0.2847E+01  0.5734E+02
      0.625  0.2717E+01  0.5738E+02
      0.637  0.2349E+01  0.5740E+02
      0.649  0.1701E+01  0.5742E+02
      0.661  0.1267E+01  0.5744E+02
      0.673  0.1386E+01  0.5746E+02
      0.685  0.1584E+01  0.5747E+02
      0.697  0.2153E+01  0.5750E+02
      0.709  0.3803E+01  0.5755E+02
      0.721  0.2455E+01  0.5758E+02
      0.733  0.1448E+01  0.5759E+02
      0.745  0.1420E+01  0.5761E+02
      0.757  0.2239E+01  0.5764E+02
      0.769  0.2639E+01  0.5767E+02
      0.781  0.2481E+01  0.5770E+02
      0.793  0.2185E+01  0.5773E+02
      0.805  0.3296E+01  0.5776E+02
      0.817  0.3532E+01  0.5781E+02
      0.829  0.3165E+01  0.5785E+02
      0.841  0.3035E+01  0.5788E+02
      0.853  0.3401E+01  0.5792E+02
      0.865  0.2173E+01  0.5795E+02
      0.877  0.1703E+01  0.5797E+02
      0.889  0.2236E+01  0.5800E+02
      0.902  0.3380E+01  0.5804E+02
      0.914  0.2274E+01  0.5806E+02
      0.926  0.1447E+01  0.5808E+02
      0.938  0.2357E+01  0.5811E+02
      0.950  0.2496E+01  0.5814E+02
      0.962  0.2337E+01  0.5817E+02
      0.974  0.2695E+01  0.5820E+02
      0.986  0.3800E+01  0.5825E+02
      0.998  0.3511E+01  0.5829E+02
      1.010  0.3071E+01  0.5833E+02
      1.022  0.3018E+01  0.5836E+02
      1.034  0.3789E+01  0.5841E+02
      1.046  0.4168E+01  0.5846E+02
      1.058  0.3895E+01  0.5850E+02
      1.070  0.3315E+01  0.5854E+02
      1.082  0.4013E+01  0.5859E+02
      1.094  0.3730E+01  0.5864E+02
      1.106  0.3006E+01  0.5867E+02
      1.118  0.2896E+01  0.5871E+02
      1.130  0.3375E+01  0.5875E+02
      1.142  0.4129E+01  0.5880E+02
      1.154  0.4584E+01  0.5885E+02
      1.166  0.3555E+01  0.5890E+02
      1.178  0.2493E+01  0.5893E+02
      1.190  0.2422E+01  0.5896E+02
      1.202  0.3043E+01  0.5899E+02
      1.214  0.4025E+01  0.5904E+02
      1.226  0.3819E+01  0.5909E+02
      1.238  0.3211E+01  0.5913E+02
      1.250  0.3774E+01  0.5917E+02
      1.262  0.3781E+01  0.5922E+02
      1.274  0.3507E+01  0.5926E+02
      1.287  0.3294E+01  0.5930E+02
      1.299  0.3158E+01  0.5934E+02
      1.311  0.3179E+01  0.5937E+02
      1.323  0.2015E+01  0.5940E+02
      1.335  0.1894E+01  0.5942E+02
      1.347  0.2549E+01  0.5945E+02
      1.359  0.2860E+01  0.5949E+02
      1.371  0.3258E+01  0.5953E+02
      1.383  0.2715E+01  0.5956E+02
      1.395  0.2890E+01  0.5959E+02
      1.407  0.3767E+01  0.5964E+02
      1.419  0.4025E+01  0.5969E+02
      1.431  0.2816E+01  0.5972E+02
      1.443  0.2510E+01  0.5975E+02
      1.455  0.2285E+01  0.5978E+02
      1.467  0.1955E+01  0.5980E+02
      1.479  0.2113E+01  0.5983E+02
      1.491  0.2379E+01  0.5986E+02
      1.503  0.3545E+01  0.5990E+02
      1.515  0.2385E+01  0.5993E+02
      1.527  0.2219E+01  0.5995E+02
      1.539  0.2237E+01  0.5998E+02
      1.551  0.2038E+01  0.6001E+02
      1.563  0.3970E+01  0.6005E+02
      1.575  0.4028E+01  0.6010E+02
      1.587  0.2367E+01  0.6013E+02
      1.599  0.1787E+01  0.6015E+02
      1.611  0.1592E+01  0.6017E+02
      1.623  0.2429E+01  0.6020E+02
      1.635  0.3870E+01  0.6025E+02
      1.647  0.2964E+01  0.6028E+02
      1.659  0.9382E+00  0.6029E+02
      1.672  0.1465E+01  0.6031E+02
      1.684  0.2715E+01  0.6034E+02
      1.696  0.3023E+01  0.6038E+02
      1.708  0.2098E+01  0.6041E+02
      1.720  0.2348E+01  0.6043E+02
      1.732  0.3202E+01  0.6047E+02
      1.744  0.2286E+01  0.6050E+02
      1.756  0.3141E+01  0.6054E+02
      1.768  0.2847E+01  0.6057E+02
      1.780  0.2559E+01  0.6060E+02
      1.792  0.2541E+01  0.6063E+02
      1.804  0.1565E+01  0.6065E+02
      1.816  0.1690E+01  0.6067E+02
      1.828  0.3071E+01  0.6071E+02
      1.840  0.2702E+01  0.6074E+02
      1.852  0.1976E+01  0.6077E+02
      1.864  0.1915E+01  0.6079E+02
      1.876  0.3121E+01  0.6083E+02
      1.888  0.3608E+01  0.6087E+02
      1.900  0.3736E+01  0.6091E+02
      1.912  0.2435E+01  0.6094E+02
      1.924  0.2826E+01  0.6098E+02
      1.936  0.2547E+01  0.6101E+02
      1.948  0.1892E+01  0.6103E+02
      1.960  0.7209E+00  0.6104E+02
      1.972  0.2374E+01  0.6107E+02
      1.984  0.3869E+01  0.6112E+02
      1.996  0.3125E+01  0.6115E+02
      2.008  0.2345E+01  0.6118E+02
      2.020  0.2132E+01  0.6121E+02
      2.032  0.2206E+01  0.6123E+02
      2.045  0.2185E+01  0.6126E+02
      2.057  0.3539E+01  0.6130E+02
      2.069  0.3758E+01  0.6135E+02
      2.081  0.2497E+01  0.6138E+02
      2.093  0.2219E+01  0.6140E+02
      2.105  0.2012E+01  0.6143E+02
      2.117  0.2455E+01  0.6146E+02
      2.129  0.2529E+01  0.6149E+02
      2.141  0.2561E+01  0.6152E+02
      2.153  0.2651E+01  0.6155E+02
      2.165  0.2203E+01  0.6158E+02
      2.177  0.1610E+01  0.6160E+02
      2.189  0.2433E+01  0.6163E+02
      2.201  0.3027E+01  0.6166E+02
      2.213  0.4035E+01  0.6171E+02
      2.225  0.3774E+01  0.6176E+02
      2.237  0.2979E+01  0.6179E+02
      2.249  0.1856E+01  0.6181E+02
      2.261  0.1675E+01  0.6183E+02
      2.273  0.1175E+01  0.6185E+02
      2.285  0.1898E+01  0.6187E+02
      2.297  0.3538E+01  0.6191E+02
      2.309  0.2893E+01  0.6195E+02
      2.321  0.2550E+01  0.6198E+02
      2.333  0.2886E+01  0.6201E+02
      2.345  0.2792E+01  0.6205E+02
      2.357  0.2576E+01  0.6208E+02
      2.369  0.3134E+01  0.6212E+02
      2.381  0.3617E+01  0.6216E+02
      2.393  0.2331E+01  0.6219E+02
      2.405  0.1445E+01  0.6221E+02
      2.417  0.1859E+01  0.6223E+02
      2.430  0.2426E+01  0.6226E+02
      2.442  0.1863E+01  0.6228E+02
      2.454  0.3155E+01  0.6232E+02
      2.466  0.3863E+01  0.6236E+02
      2.478  0.2923E+01  0.6240E+02
      2.490  0.2569E+01  0.6243E+02
      2.502  0.2324E+01  0.6246E+02
      2.514  0.2695E+01  0.6249E+02
      2.526  0.2398E+01  0.6252E+02
      2.538  0.2643E+01  0.6255E+02
      2.550  0.3138E+01  0.6259E+02
      2.562  0.2971E+01  0.6262E+02
      2.574  0.1838E+01  0.6265E+02
      2.586  0.2544E+01  0.6268E+02
      2.598  0.2206E+01  0.6270E+02
      2.610  0.1834E+01  0.6273E+02
      2.622  0.2091E+01  0.6275E+02
      2.634  0.3325E+01  0.6279E+02
      2.646  0.4549E+01  0.6285E+02
      2.658  0.4509E+01  0.6290E+02
      2.670  0.2342E+01  0.6293E+02
      2.682  0.1872E+01  0.6295E+02
      2.694  0.1679E+01  0.6297E+02
      2.706  0.1464E+01  0.6299E+02
      2.718  0.2637E+01  0.6302E+02
      2.730  0.3131E+01  0.6306E+02
      2.742  0.2268E+01  0.6309E+02
      2.754  0.2006E+01  0.6311E+02
      2.766  0.3274E+01  0.6315E+02
      2.778  0.4749E+01  0.6321E+02
      2.790  0.3623E+01  0.6325E+02
      2.802  0.2686E+01  0.6328E+02
      2.815  0.2849E+01  0.6332E+02
      2.827  0.1869E+01  0.6334E+02
      2.839  0.2051E+01  0.6336E+02
      2.851  0.1930E+01  0.6339E+02
      2.863  0.2331E+01  0.6341E+02
      2.875  0.2590E+01  0.6345E+02
      2.887  0.2832E+01  0.6348E+02
      2.899  0.3099E+01  0.6352E+02
      2.911  0.4471E+01  0.6357E+02
      2.923  0.4113E+01  0.6362E+02
      2.935  0.3040E+01  0.6366E+02
      2.947  0.2728E+01  0.6369E+02
      2.959  0.2549E+01  0.6372E+02
      2.971  0.2087E+01  0.6375E+02
      2.983  0.1981E+01  0.6377E+02
      2.995  0.3435E+01  0.6381E+02
      3.007  0.4004E+01  0.6386E+02
      3.019  0.4018E+01  0.6391E+02
      3.031  0.4627E+01  0.6396E+02
      3.043  0.4581E+01  0.6402E+02
      3.055  0.4558E+01  0.6407E+02
      3.067  0.4014E+01  0.6412E+02
      3.079  0.3894E+01  0.6417E+02
      3.091  0.4007E+01  0.6422E+02
      3.103  0.4765E+01  0.6427E+02
      3.115  0.4740E+01  0.6433E+02
      3.127  0.2955E+01  0.6437E+02
      3.139  0.3252E+01  0.6441E+02
      3.151  0.4138E+01  0.6446E+02
      3.163  0.3938E+01  0.6450E+02
      3.175  0.4171E+01  0.6455E+02
      3.188  0.4117E+01  0.6460E+02
      3.200  0.4961E+01  0.6466E+02
      3.212  0.4646E+01  0.6472E+02
      3.224  0.3966E+01  0.6477E+02
      3.236  0.3267E+01  0.6481E+02
      3.248  0.3226E+01  0.6484E+02
      3.260  0.4078E+01  0.6489E+02
      3.272  0.4129E+01  0.6494E+02
      3.284  0.4396E+01  0.6500E+02
      3.296  0.4548E+01  0.6505E+02
      3.308  0.3397E+01  0.6509E+02
      3.320  0.3381E+01  0.6513E+02
      3.332  0.4400E+01  0.6518E+02
      3.344  0.5102E+01  0.6525E+02
      3.356  0.4284E+01  0.6530E+02
      3.368  0.3997E+01  0.6535E+02
      3.380  0.4425E+01  0.6540E+02
      3.392  0.3334E+01  0.6544E+02
      3.404  0.3853E+01  0.6549E+02
      3.416  0.3835E+01  0.6553E+02
      3.428  0.4165E+01  0.6558E+02
      3.440  0.3503E+01  0.6562E+02
      3.452  0.4828E+01  0.6568E+02
      3.464  0.5592E+01  0.6575E+02
      3.476  0.5261E+01  0.6581E+02
      3.488  0.3905E+01  0.6586E+02
      3.500  0.3581E+01  0.6590E+02
      3.512  0.4053E+01  0.6595E+02
      3.524  0.3548E+01  0.6599E+02
      3.536  0.4022E+01  0.6604E+02
      3.548  0.4539E+01  0.6610E+02
      3.560  0.4798E+01  0.6615E+02
      3.573  0.5136E+01  0.6622E+02
      3.585  0.5281E+01  0.6628E+02
      3.597  0.4314E+01  0.6633E+02
      3.609  0.5097E+01  0.6639E+02
      3.621  0.5987E+01  0.6647E+02
      3.633  0.5882E+01  0.6654E+02
      3.645  0.4794E+01  0.6659E+02
      3.657  0.4610E+01  0.6665E+02
      3.669  0.5769E+01  0.6672E+02
      3.681  0.5486E+01  0.6678E+02
      3.693  0.6353E+01  0.6686E+02
      3.705  0.8416E+01  0.6696E+02
      3.717  0.8378E+01  0.6706E+02
      3.729  0.4696E+01  0.6712E+02
      3.741  0.3692E+01  0.6716E+02
      3.753  0.3669E+01  0.6721E+02
      3.765  0.4037E+01  0.6726E+02
      3.777  0.3931E+01  0.6730E+02
      3.789  0.4275E+01  0.6736E+02
      3.801  0.5129E+01  0.6742E+02
      3.813  0.6473E+01  0.6750E+02
      3.825  0.5449E+01  0.6756E+02
      3.837  0.4415E+01  0.6761E+02
      3.849  0.3967E+01  0.6766E+02
      3.861  0.4488E+01  0.6772E+02
      3.873  0.3873E+01  0.6776E+02
      3.885  0.4408E+01  0.6782E+02
      3.897  0.5406E+01  0.6788E+02
      3.909  0.5390E+01  0.6795E+02
      3.921  0.4590E+01  0.6800E+02
      3.933  0.4404E+01  0.6805E+02
      3.945  0.5129E+01  0.6812E+02
      3.958  0.5137E+01  0.6818E+02
      3.970  0.4580E+01  0.6823E+02
      3.982  0.5701E+01  0.6830E+02
      3.994  0.6414E+01  0.6838E+02
      4.006  0.6163E+01  0.6845E+02
      4.018  0.5846E+01  0.6852E+02
      4.030  0.4397E+01  0.6858E+02
      4.042  0.3744E+01  0.6862E+02
      4.054  0.4767E+01  0.6868E+02
      4.066  0.5847E+01  0.6875E+02
      4.078  0.5607E+01  0.6882E+02
      4.090  0.4830E+01  0.6887E+02
      4.102  0.5223E+01  0.6894E+02
      4.114  0.6730E+01  0.6902E+02
      4.126  0.8277E+01  0.6912E+02
      4.138  0.7031E+01  0.6920E+02
      4.150  0.5568E+01  0.6927E+02
      4.162  0.4186E+01  0.6932E+02
      4.174  0.4602E+01  0.6937E+02
      4.186  0.6049E+01  0.6945E+02
      4.198  0.5102E+01  0.6951E+02
      4.210  0.4087E+01  0.6956E+02
      4.222  0.4062E+01  0.6961E+02
      4.234  0.5782E+01  0.6968E+02
      4.246  0.5974E+01  0.6975E+02
      4.258  0.5159E+01  0.6981E+02
      4.270  0.6080E+01  0.6988E+02
      4.282  0.6603E+01  0.6996E+02
      4.294  0.5118E+01  0.7002E+02
      4.306  0.6336E+01  0.7010E+02
      4.318  0.6913E+01  0.7018E+02
      4.331  0.6589E+01  0.7026E+02
      4.343  0.7302E+01  0.7035E+02
      4.355  0.5121E+01  0.7041E+02
      4.367  0.5176E+01  0.7047E+02
      4.379  0.5647E+01  0.7054E+02
      4.391  0.4566E+01  0.7060E+02
      4.403  0.4837E+01  0.7066E+02
      4.415  0.4517E+01  0.7071E+02
      4.427  0.4702E+01  0.7077E+02
      4.439  0.4629E+01  0.7082E+02
      4.451  0.4874E+01  0.7088E+02
      4.463  0.4628E+01  0.7094E+02
      4.475  0.4140E+01  0.7099E+02
      4.487  0.5006E+01  0.7105E+02
      4.499  0.5320E+01  0.7111E+02
      4.511  0.5308E+01  0.7117E+02
      4.523  0.5793E+01  0.7124E+02
      4.535  0.6700E+01  0.7132E+02
      4.547  0.8132E+01  0.7142E+02
      4.559  0.6827E+01  0.7150E+02
      4.571  0.6282E+01  0.7158E+02
      4.583  0.5142E+01  0.7164E+02
      4.595  0.6255E+01  0.7172E+02
      4.607  0.6897E+01  0.7180E+02
      4.619  0.5998E+01  0.7187E+02
      4.631  0.4995E+01  0.7193E+02
      4.643  0.4772E+01  0.7199E+02
      4.655  0.6300E+01  0.7207E+02
      4.667  0.8151E+01  0.7216E+02
      4.679  0.9310E+01  0.7228E+02
      4.691  0.8148E+01  0.7237E+02
      4.703  0.6956E+01  0.7246E+02
      4.716  0.5951E+01  0.7253E+02
      4.728  0.3859E+01  0.7258E+02
      4.740  0.3091E+01  0.7261E+02
      4.752  0.4343E+01  0.7267E+02
      4.764  0.4417E+01  0.7272E+02
      4.776  0.3840E+01  0.7276E+02
      4.788  0.4523E+01  0.7282E+02
      4.800  0.5720E+01  0.7289E+02
      4.812  0.5464E+01  0.7295E+02
      4.824  0.5344E+01  0.7302E+02
      4.836  0.5150E+01  0.7308E+02
      4.848  0.5117E+01  0.7314E+02
      4.860  0.4480E+01  0.7320E+02
      4.872  0.3970E+01  0.7324E+02
      4.884  0.4238E+01  0.7329E+02
      4.896  0.6762E+01  0.7338E+02
      4.908  0.8693E+01  0.7348E+02
      4.920  0.7985E+01  0.7358E+02
      4.932  0.7446E+01  0.7367E+02
      4.944  0.8057E+01  0.7376E+02
      4.956  0.8326E+01  0.7386E+02
      4.968  0.8155E+01  0.7396E+02
      4.980  0.8142E+01  0.7406E+02
      4.992  0.8196E+01  0.7416E+02
      5.004  0.8383E+01  0.7426E+02
      5.016  0.7363E+01  0.7435E+02
      5.028  0.8130E+01  0.7444E+02
      5.040  0.8516E+01  0.7455E+02
      5.052  0.7430E+01  0.7464E+02
      5.064  0.8821E+01  0.7474E+02
      5.076  0.1046E+02  0.7487E+02
      5.088  0.8699E+01  0.7497E+02
      5.101  0.7741E+01  0.7507E+02
      5.113  0.6541E+01  0.7514E+02
      5.125  0.5865E+01  0.7522E+02
      5.137  0.6668E+01  0.7530E+02
      5.149  0.5482E+01  0.7536E+02
      5.161  0.5359E+01  0.7543E+02
      5.173  0.7041E+01  0.7551E+02
      5.185  0.7418E+01  0.7560E+02
      5.197  0.6734E+01  0.7568E+02
      5.209  0.6261E+01  0.7576E+02
      5.221  0.6129E+01  0.7583E+02
      5.233  0.5377E+01  0.7589E+02
      5.245  0.5888E+01  0.7597E+02
      5.257  0.7021E+01  0.7605E+02
      5.269  0.6877E+01  0.7613E+02
      5.281  0.6397E+01  0.7621E+02
      5.293  0.8077E+01  0.7631E+02
      5.305  0.8161E+01  0.7641E+02
      5.317  0.8175E+01  0.7650E+02
      5.329  0.7646E+01  0.7660E+02
      5.341  0.6862E+01  0.7668E+02
      5.353  0.7144E+01  0.7676E+02
      5.365  0.5164E+01  0.7683E+02
      5.377  0.6150E+01  0.7690E+02
      5.389  0.7682E+01  0.7699E+02
      5.401  0.7220E+01  0.7708E+02
      5.413  0.5481E+01  0.7715E+02
      5.425  0.6071E+01  0.7722E+02
      5.437  0.6379E+01  0.7730E+02
      5.449  0.4894E+01  0.7735E+02
      5.461  0.5782E+01  0.7742E+02
      5.473  0.7700E+01  0.7752E+02
      5.486  0.7245E+01  0.7760E+02
      5.498  0.5392E+01  0.7767E+02
      5.510  0.4911E+01  0.7773E+02
      5.522  0.5903E+01  0.7780E+02
      5.534  0.6659E+01  0.7788E+02
      5.546  0.7430E+01  0.7797E+02
      5.558  0.6941E+01  0.7805E+02
      5.570  0.6092E+01  0.7812E+02
      5.582  0.6243E+01  0.7820E+02
      5.594  0.7096E+01  0.7829E+02
      5.606  0.8753E+01  0.7839E+02
      5.618  0.8206E+01  0.7849E+02
      5.630  0.7017E+01  0.7857E+02
      5.642  0.7445E+01  0.7866E+02
      5.654  0.6742E+01  0.7874E+02
      5.666  0.6766E+01  0.7883E+02
      5.678  0.7918E+01  0.7892E+02
      5.690  0.8840E+01  0.7903E+02
      5.702  0.7477E+01  0.7912E+02
      5.714  0.6735E+01  0.7920E+02
      5.726  0.6571E+01  0.7928E+02
      5.738  0.6239E+01  0.7935E+02
      5.750  0.6021E+01  0.7943E+02
      5.762  0.7470E+01  0.7951E+02
      5.774  0.7741E+01  0.7961E+02
      5.786  0.5254E+01  0.7967E+02
      5.798  0.4151E+01  0.7972E+02
      5.810  0.3150E+01  0.7976E+02
      5.822  0.2292E+01  0.7979E+02
      5.834  0.1967E+01  0.7981E+02
      5.846  0.2492E+01  0.7984E+02
      5.859  0.4528E+01  0.7989E+02
      5.871  0.8027E+01  0.7999E+02
      5.883  0.9577E+01  0.8011E+02
      5.895  0.7259E+01  0.8019E+02
      5.907  0.6099E+01  0.8027E+02
      5.919  0.6159E+01  0.8034E+02
      5.931  0.5590E+01  0.8041E+02
      5.943  0.5606E+01  0.8048E+02
      5.955  0.4444E+01  0.8053E+02
      5.967  0.3516E+01  0.8057E+02
      5.979  0.3243E+01  0.8061E+02
      5.991  0.2872E+01  0.8065E+02
      6.003  0.3896E+01  0.8069E+02
      6.015  0.4558E+01  0.8075E+02
      6.027  0.6205E+01  0.8082E+02
      6.039  0.5648E+01  0.8089E+02
      6.051  0.5546E+01  0.8096E+02
      6.063  0.7385E+01  0.8105E+02
      6.075  0.7720E+01  0.8114E+02
      6.087  0.6446E+01  0.8122E+02
      6.099  0.5292E+01  0.8128E+02
      6.111  0.5148E+01  0.8134E+02
      6.123  0.6536E+01  0.8142E+02
      6.135  0.5864E+01  0.8149E+02
      6.147  0.4030E+01  0.8154E+02
      6.159  0.5211E+01  0.8160E+02
      6.171  0.5748E+01  0.8167E+02
      6.183  0.6400E+01  0.8175E+02
      6.195  0.6605E+01  0.8183E+02
      6.207  0.6755E+01  0.8191E+02
      6.219  0.6904E+01  0.8199E+02
      6.231  0.6608E+01  0.8207E+02
      6.244  0.6270E+01  0.8215E+02
      6.256  0.6891E+01  0.8223E+02
      6.268  0.5624E+01  0.8230E+02
      6.280  0.5679E+01  0.8237E+02
      6.292  0.6830E+01  0.8245E+02
      6.304  0.5566E+01  0.8251E+02
      6.316  0.4608E+01  0.8257E+02
      6.328  0.4720E+01  0.8263E+02
      6.340  0.4223E+01  0.8268E+02
      6.352  0.4842E+01  0.8274E+02
      6.364  0.6357E+01  0.8281E+02
      6.376  0.5933E+01  0.8288E+02
      6.388  0.4406E+01  0.8294E+02
      6.400  0.4542E+01  0.8299E+02
      6.412  0.4503E+01  0.8305E+02
      6.424  0.4718E+01  0.8310E+02
      6.436  0.5400E+01  0.8317E+02
      6.448  0.5752E+01  0.8324E+02
      6.460  0.6023E+01  0.8331E+02
      6.472  0.6299E+01  0.8338E+02
      6.484  0.4658E+01  0.8344E+02
      6.496  0.2657E+01  0.8347E+02
      6.508  0.3488E+01  0.8351E+02
      6.520  0.5833E+01  0.8359E+02
      6.532  0.5967E+01  0.8366E+02
      6.544  0.5365E+01  0.8372E+02
      6.556  0.4870E+01  0.8378E+02
      6.568  0.4967E+01  0.8384E+02
      6.580  0.5727E+01  0.8391E+02
      6.592  0.5259E+01  0.8397E+02
      6.604  0.6423E+01  0.8405E+02
      6.616  0.1022E+02  0.8417E+02
      6.629  0.1197E+02  0.8432E+02
      6.641  0.7998E+01  0.8441E+02
      6.653  0.7644E+01  0.8450E+02
      6.665  0.8077E+01  0.8460E+02
      6.677  0.7554E+01  0.8469E+02
      6.689  0.7180E+01  0.8478E+02
      6.701  0.7386E+01  0.8487E+02
      6.713  0.7809E+01  0.8496E+02
      6.725  0.7936E+01  0.8506E+02
      6.737  0.1046E+02  0.8518E+02
      6.749  0.1039E+02  0.8531E+02
      6.761  0.7631E+01  0.8540E+02
      6.773  0.7045E+01  0.8548E+02
      6.785  0.6075E+01  0.8556E+02
      6.797  0.6219E+01  0.8563E+02
      6.809  0.7836E+01  0.8573E+02
      6.821  0.8230E+01  0.8583E+02
      6.833  0.7506E+01  0.8592E+02
      6.845  0.7165E+01  0.8600E+02
      6.857  0.7095E+01  0.8609E+02
      6.869  0.7724E+01  0.8618E+02
      6.881  0.7151E+01  0.8627E+02
      6.893  0.7391E+01  0.8636E+02
      6.905  0.8426E+01  0.8646E+02
      6.917  0.7199E+01  0.8654E+02
      6.929  0.6745E+01  0.8662E+02
      6.941  0.7522E+01  0.8672E+02
      6.953  0.7961E+01  0.8681E+02
      6.965  0.8004E+01  0.8691E+02
      6.977  0.6465E+01  0.8698E+02
      6.989  0.6937E+01  0.8707E+02
      7.002  0.7141E+01  0.8715E+02
      7.014  0.7713E+01  0.8725E+02
      7.026  0.7972E+01  0.8734E+02
      7.038  0.8230E+01  0.8744E+02
      7.050  0.6770E+01  0.8752E+02
      7.062  0.6052E+01  0.8760E+02
      7.074  0.7157E+01  0.8768E+02
      7.086  0.7549E+01  0.8777E+02
      7.098  0.8347E+01  0.8787E+02
      7.110  0.1001E+02  0.8799E+02
      7.122  0.8775E+01  0.8810E+02
      7.134  0.8609E+01  0.8820E+02
      7.146  0.8900E+01  0.8831E+02
      7.158  0.1027E+02  0.8843E+02
      7.170  0.1158E+02  0.8857E+02
      7.182  0.1165E+02  0.8871E+02
      7.194  0.8779E+01  0.8882E+02
      7.206  0.7082E+01  0.8890E+02
      7.218  0.8086E+01  0.8900E+02
      7.230  0.8849E+01  0.8911E+02
      7.242  0.6583E+01  0.8919E+02
      7.254  0.7137E+01  0.8927E+02
      7.266  0.6850E+01  0.8936E+02
      7.278  0.6236E+01  0.8943E+02
      7.290  0.7562E+01  0.8952E+02
      7.302  0.7410E+01  0.8961E+02
      7.314  0.7354E+01  0.8970E+02
      7.326  0.7956E+01  0.8979E+02
      7.338  0.9888E+01  0.8991E+02
      7.350  0.1039E+02  0.9004E+02
      7.362  0.9984E+01  0.9016E+02
      7.374  0.1279E+02  0.9031E+02
      7.387  0.1127E+02  0.9045E+02
      7.399  0.9058E+01  0.9056E+02
      7.411  0.8204E+01  0.9066E+02
      7.423  0.8494E+01  0.9076E+02
      7.435  0.8739E+01  0.9086E+02
      7.447  0.9457E+01  0.9098E+02
      7.459  0.1046E+02  0.9110E+02
      7.471  0.1094E+02  0.9123E+02
      7.483  0.9533E+01  0.9135E+02
      7.495  0.8741E+01  0.9145E+02
      7.507  0.8654E+01  0.9156E+02
      7.519  0.9700E+01  0.9168E+02
      7.531  0.9845E+01  0.9179E+02
      7.543  0.9506E+01  0.9191E+02
      7.555  0.1038E+02  0.9203E+02
      7.567  0.1133E+02  0.9217E+02
      7.579  0.1047E+02  0.9230E+02
      7.591  0.1058E+02  0.9242E+02
      7.603  0.1153E+02  0.9256E+02
      7.615  0.1062E+02  0.9269E+02
      7.627  0.9650E+01  0.9281E+02
      7.639  0.9452E+01  0.9292E+02
      7.651  0.1199E+02  0.9306E+02
      7.663  0.1381E+02  0.9323E+02
      7.675  0.1098E+02  0.9336E+02
      7.687  0.1166E+02  0.9350E+02
      7.699  0.1338E+02  0.9366E+02
      7.711  0.1574E+02  0.9385E+02
      7.723  0.1603E+02  0.9405E+02
      7.735  0.1344E+02  0.9421E+02
      7.747  0.1212E+02  0.9435E+02
      7.759  0.1060E+02  0.9448E+02
      7.772  0.1244E+02  0.9463E+02
      7.784  0.1179E+02  0.9477E+02
      7.796  0.1234E+02  0.9492E+02
      7.808  0.1336E+02  0.9508E+02
      7.820  0.1153E+02  0.9522E+02
      7.832  0.1023E+02  0.9534E+02
      7.844  0.9986E+01  0.9546E+02
      7.856  0.1019E+02  0.9559E+02
      7.868  0.1046E+02  0.9571E+02
      7.880  0.1085E+02  0.9584E+02
      7.892  0.1103E+02  0.9597E+02
      7.904  0.1184E+02  0.9612E+02
      7.916  0.1221E+02  0.9626E+02
      7.928  0.1168E+02  0.9640E+02
      7.940  0.1014E+02  0.9653E+02
      7.952  0.1004E+02  0.9665E+02
      7.964  0.9989E+01  0.9677E+02
      7.976  0.7617E+01  0.9686E+02
      7.988  0.8225E+01  0.9696E+02
      8.000  0.8449E+01  0.9706E+02
      8.012  0.7238E+01  0.9715E+02
      8.024  0.8657E+01  0.9725E+02
      8.036  0.1011E+02  0.9737E+02
      8.048  0.8324E+01  0.9747E+02
      8.060  0.9940E+01  0.9759E+02
      8.072  0.1351E+02  0.9775E+02
      8.084  0.1093E+02  0.9789E+02
      8.096  0.1103E+02  0.9802E+02
      8.108  0.9152E+01  0.9813E+02
      8.120  0.7294E+01  0.9822E+02
      8.132  0.8475E+01  0.9832E+02
      8.145  0.8869E+01  0.9843E+02
      8.157  0.8863E+01  0.9853E+02
      8.169  0.8727E+01  0.9864E+02
      8.181  0.9342E+01  0.9875E+02
      8.193  0.9106E+01  0.9886E+02
      8.205  0.1012E+02  0.9898E+02
      8.217  0.1139E+02  0.9912E+02
      8.229  0.9107E+01  0.9923E+02
      8.241  0.8798E+01  0.9933E+02
      8.253  0.8612E+01  0.9944E+02
      8.265  0.1037E+02  0.9956E+02
      8.277  0.9002E+01  0.9967E+02
      8.289  0.9487E+01  0.9978E+02
      8.301  0.1059E+02  0.9991E+02
      8.313  0.9978E+01  0.1000E+03
      8.325  0.1216E+02  0.1002E+03
      8.337  0.1194E+02  0.1003E+03
      8.349  0.9477E+01  0.1004E+03
      8.361  0.7148E+01  0.1005E+03
      8.373  0.8039E+01  0.1006E+03
      8.385  0.7569E+01  0.1007E+03
      8.397  0.6859E+01  0.1008E+03
      8.409  0.8701E+01  0.1009E+03
      8.421  0.1177E+02  0.1010E+03
      8.433  0.1023E+02  0.1012E+03
      8.445  0.8620E+01  0.1013E+03
      8.457  0.7842E+01  0.1014E+03
      8.469  0.9027E+01  0.1015E+03
      8.481  0.1041E+02  0.1016E+03
      8.493  0.1032E+02  0.1017E+03
      8.505  0.9549E+01  0.1018E+03
      8.517  0.8826E+01  0.1019E+03
      8.530  0.1038E+02  0.1021E+03
      8.542  0.1046E+02  0.1022E+03
      8.554  0.7730E+01  0.1023E+03
      8.566  0.7854E+01  0.1024E+03
      8.578  0.8659E+01  0.1025E+03
      8.590  0.9173E+01  0.1026E+03
      8.602  0.8322E+01  0.1027E+03
      8.614  0.7581E+01  0.1028E+03
      8.626  0.7373E+01  0.1029E+03
      8.638  0.7726E+01  0.1030E+03
      8.650  0.9318E+01  0.1031E+03
      8.662  0.1001E+02  0.1032E+03
      8.674  0.8607E+01  0.1033E+03
      8.686  0.7953E+01  0.1034E+03
      8.698  0.8819E+01  0.1035E+03
      8.710  0.9301E+01  0.1036E+03
      8.722  0.8592E+01  0.1037E+03
      8.734  0.7420E+01  0.1038E+03
      8.746  0.7182E+01  0.1039E+03
      8.758  0.8760E+01  0.1040E+03
      8.770  0.8859E+01  0.1041E+03
      8.782  0.9603E+01  0.1042E+03
      8.794  0.1027E+02  0.1043E+03
      8.806  0.9598E+01  0.1045E+03
      8.818  0.9199E+01  0.1046E+03
      8.830  0.8422E+01  0.1047E+03
      8.842  0.7481E+01  0.1048E+03
      8.854  0.6799E+01  0.1048E+03
      8.866  0.6885E+01  0.1049E+03
      8.878  0.7201E+01  0.1050E+03
      8.890  0.8108E+01  0.1051E+03
      8.902  0.7973E+01  0.1052E+03
      8.915  0.7592E+01  0.1053E+03
      8.927  0.8602E+01  0.1054E+03
      8.939  0.8805E+01  0.1055E+03
      8.951  0.9055E+01  0.1056E+03
      8.963  0.8983E+01  0.1057E+03
      8.975  0.7868E+01  0.1058E+03
      8.987  0.6505E+01  0.1059E+03
      8.999  0.6370E+01  0.1060E+03
      9.011  0.8375E+01  0.1061E+03
      9.023  0.9431E+01  0.1062E+03
      9.035  0.9637E+01  0.1063E+03
      9.047  0.1097E+02  0.1064E+03
      9.059  0.9808E+01  0.1066E+03
      9.071  0.8437E+01  0.1067E+03
      9.083  0.7655E+01  0.1067E+03
      9.095  0.6836E+01  0.1068E+03
      9.107  0.9019E+01  0.1069E+03
      9.119  0.1080E+02  0.1071E+03
      9.131  0.1066E+02  0.1072E+03
      9.143  0.7945E+01  0.1073E+03
      9.155  0.7429E+01  0.1074E+03
      9.167  0.8619E+01  0.1075E+03
      9.179  0.9482E+01  0.1076E+03
      9.191  0.9634E+01  0.1077E+03
      9.203  0.9727E+01  0.1078E+03
      9.215  0.9166E+01  0.1079E+03
      9.227  0.9416E+01  0.1081E+03
      9.239  0.1052E+02  0.1082E+03
      9.251  0.8483E+01  0.1083E+03
      9.263  0.6882E+01  0.1084E+03
      9.275  0.6235E+01  0.1084E+03
      9.287  0.6466E+01  0.1085E+03
      9.300  0.8573E+01  0.1086E+03
      9.312  0.8465E+01  0.1087E+03
      9.324  0.7547E+01  0.1088E+03
      9.336  0.7233E+01  0.1089E+03
      9.348  0.9540E+01  0.1090E+03
      9.360  0.9745E+01  0.1091E+03
      9.372  0.9968E+01  0.1093E+03
      9.384  0.9392E+01  0.1094E+03
      9.396  0.9896E+01  0.1095E+03
      9.408  0.8576E+01  0.1096E+03
      9.420  0.8241E+01  0.1097E+03
      9.432  0.6763E+01  0.1098E+03
      9.444  0.6865E+01  0.1099E+03
      9.456  0.7406E+01  0.1099E+03
      9.468  0.7355E+01  0.1100E+03
      9.480  0.9253E+01  0.1101E+03
      9.492  0.9200E+01  0.1103E+03
      9.504  0.8003E+01  0.1103E+03
      9.516  0.9762E+01  0.1105E+03
      9.528  0.9777E+01  0.1106E+03
      9.540  0.8201E+01  0.1107E+03
      9.552  0.7279E+01  0.1108E+03
      9.564  0.7346E+01  0.1109E+03
      9.576  0.7790E+01  0.1110E+03
      9.588  0.8832E+01  0.1111E+03
      9.600  0.9610E+01  0.1112E+03
      9.612  0.9663E+01  0.1113E+03
      9.624  0.1076E+02  0.1114E+03
      9.636  0.1044E+02  0.1115E+03
      9.648  0.9140E+01  0.1117E+03
      9.660  0.8617E+01  0.1118E+03
      9.673  0.7671E+01  0.1119E+03
      9.685  0.7018E+01  0.1119E+03
      9.697  0.8444E+01  0.1120E+03
      9.709  0.9996E+01  0.1122E+03
      9.721  0.1010E+02  0.1123E+03
      9.733  0.7801E+01  0.1124E+03
      9.745  0.7821E+01  0.1125E+03
      9.757  0.8756E+01  0.1126E+03
      9.769  0.8648E+01  0.1127E+03
      9.781  0.8751E+01  0.1128E+03
      9.793  0.9778E+01  0.1129E+03
      9.805  0.9113E+01  0.1130E+03
      9.817  0.9342E+01  0.1131E+03
      9.829  0.8459E+01  0.1132E+03
      9.841  0.5855E+01  0.1133E+03
      9.853  0.6932E+01  0.1134E+03
      9.865  0.8199E+01  0.1135E+03
      9.877  0.7951E+01  0.1136E+03
      9.889  0.8690E+01  0.1137E+03
      9.901  0.7856E+01  0.1138E+03
      9.913  0.8133E+01  0.1139E+03
      9.925  0.1051E+02  0.1140E+03
      9.937  0.9669E+01  0.1141E+03
      9.949  0.8324E+01  0.1142E+03
      9.961  0.7344E+01  0.1143E+03
      9.973  0.6511E+01  0.1144E+03
      9.985  0.6773E+01  0.1145E+03
      9.997  0.7984E+01  0.1146E+03
     10.009  0.1005E+02  0.1147E+03
     10.021  0.9934E+01  0.1148E+03
     10.033  0.8970E+01  0.1149E+03
     10.045  0.8431E+01  0.1150E+03
     10.058  0.7143E+01  0.1151E+03
     10.070  0.7018E+01  0.1152E+03
     10.082  0.8362E+01  0.1153E+03
     10.094  0.1103E+02  0.1154E+03
     10.106  0.1339E+02  0.1156E+03
     10.118  0.1089E+02  0.1157E+03
     10.130  0.9326E+01  0.1158E+03
     10.142  0.8126E+01  0.1159E+03
     10.154  0.7948E+01  0.1160E+03
     10.166  0.9472E+01  0.1161E+03
     10.178  0.9629E+01  0.1162E+03
     10.190  0.9097E+01  0.1163E+03
     10.202  0.8854E+01  0.1165E+03
     10.214  0.1014E+02  0.1166E+03
     10.226  0.1175E+02  0.1167E+03
     10.238  0.1029E+02  0.1168E+03
     10.250  0.1014E+02  0.1170E+03
     10.262  0.1064E+02  0.1171E+03
     10.274  0.1012E+02  0.1172E+03
     10.286  0.8766E+01  0.1173E+03
     10.298  0.9614E+01  0.1174E+03
     10.310  0.1012E+02  0.1176E+03
     10.322  0.8999E+01  0.1177E+03
     10.334  0.9525E+01  0.1178E+03
     10.346  0.7675E+01  0.1179E+03
     10.358  0.6622E+01  0.1179E+03
     10.370  0.7151E+01  0.1180E+03
     10.382  0.7564E+01  0.1181E+03
     10.394  0.6116E+01  0.1182E+03
     10.406  0.5493E+01  0.1183E+03
     10.418  0.7453E+01  0.1184E+03
     10.430  0.9703E+01  0.1185E+03
     10.443  0.8505E+01  0.1186E+03
     10.455  0.6852E+01  0.1187E+03
     10.467  0.8183E+01  0.1188E+03
     10.479  0.9568E+01  0.1189E+03
     10.491  0.9327E+01  0.1190E+03
     10.503  0.7648E+01  0.1191E+03
     10.515  0.6212E+01  0.1191E+03
     10.527  0.6157E+01  0.1192E+03
     10.539  0.5990E+01  0.1193E+03
     10.551  0.7600E+01  0.1194E+03
     10.563  0.8281E+01  0.1195E+03
     10.575  0.7786E+01  0.1196E+03
     10.587  0.7870E+01  0.1197E+03
     10.599  0.7522E+01  0.1198E+03
     10.611  0.7566E+01  0.1199E+03
     10.623  0.9359E+01  0.1200E+03
     10.635  0.9322E+01  0.1201E+03
     10.647  0.7101E+01  0.1202E+03
     10.659  0.6964E+01  0.1203E+03
     10.671  0.8352E+01  0.1204E+03
     10.683  0.7636E+01  0.1204E+03
     10.695  0.5931E+01  0.1205E+03
     10.707  0.7554E+01  0.1206E+03
     10.719  0.8369E+01  0.1207E+03
     10.731  0.7141E+01  0.1208E+03
     10.743  0.7693E+01  0.1209E+03
     10.755  0.6147E+01  0.1210E+03
     10.767  0.7003E+01  0.1210E+03
     10.779  0.7788E+01  0.1211E+03
     10.791  0.7431E+01  0.1212E+03
     10.803  0.7677E+01  0.1213E+03
     10.816  0.8128E+01  0.1214E+03
     10.828  0.9116E+01  0.1215E+03
     10.840  0.9482E+01  0.1216E+03
     10.852  0.7946E+01  0.1217E+03
     10.864  0.8036E+01  0.1218E+03
     10.876  0.8051E+01  0.1219E+03
     10.888  0.7765E+01  0.1220E+03
     10.900  0.7513E+01  0.1221E+03
     10.912  0.6663E+01  0.1222E+03
     10.924  0.6605E+01  0.1223E+03
     10.936  0.6398E+01  0.1223E+03
     10.948  0.5780E+01  0.1224E+03
     10.960  0.5601E+01  0.1225E+03
     10.972  0.6137E+01  0.1226E+03
     10.984  0.7722E+01  0.1227E+03
     10.996  0.5292E+01  0.1227E+03
     11.008  0.4459E+01  0.1228E+03
     11.020  0.6976E+01  0.1229E+03
     11.032  0.7093E+01  0.1229E+03
     11.044  0.7202E+01  0.1230E+03
     11.056  0.5750E+01  0.1231E+03
     11.068  0.4902E+01  0.1232E+03
     11.080  0.6441E+01  0.1232E+03
     11.092  0.7552E+01  0.1233E+03
     11.104  0.6831E+01  0.1234E+03
     11.116  0.6516E+01  0.1235E+03
     11.128  0.6409E+01  0.1236E+03
     11.140  0.6461E+01  0.1236E+03
     11.152  0.6639E+01  0.1237E+03
     11.164  0.6139E+01  0.1238E+03
     11.176  0.6033E+01  0.1239E+03
     11.188  0.6251E+01  0.1239E+03
     11.201  0.6942E+01  0.1240E+03
     11.213  0.6360E+01  0.1241E+03
     11.225  0.8166E+01  0.1242E+03
     11.237  0.9272E+01  0.1243E+03
     11.249  0.7390E+01  0.1244E+03
     11.261  0.8320E+01  0.1245E+03
     11.273  0.7438E+01  0.1246E+03
     11.285  0.6156E+01  0.1247E+03
     11.297  0.7783E+01  0.1248E+03
     11.309  0.6025E+01  0.1248E+03
     11.321  0.5229E+01  0.1249E+03
     11.333  0.6628E+01  0.1250E+03
     11.345  0.7391E+01  0.1251E+03
     11.357  0.6595E+01  0.1251E+03
     11.369  0.7980E+01  0.1252E+03
     11.381  0.8478E+01  0.1253E+03
     11.393  0.7672E+01  0.1254E+03
     11.405  0.9108E+01  0.1255E+03
     11.417  0.9692E+01  0.1257E+03
     11.429  0.8793E+01  0.1258E+03
     11.441  0.8725E+01  0.1259E+03
     11.453  0.9494E+01  0.1260E+03
     11.465  0.1252E+02  0.1261E+03
     11.477  0.1438E+02  0.1263E+03
     11.489  0.1470E+02  0.1265E+03
     11.501  0.1242E+02  0.1266E+03
     11.513  0.1283E+02  0.1268E+03
     11.525  0.1087E+02  0.1269E+03
     11.537  0.7184E+01  0.1270E+03
     11.549  0.7512E+01  0.1271E+03
     11.561  0.7614E+01  0.1272E+03
     11.573  0.9103E+01  0.1273E+03
     11.586  0.1099E+02  0.1274E+03
     11.598  0.9389E+01  0.1275E+03
     11.610  0.8630E+01  0.1276E+03
     11.622  0.9214E+01  0.1278E+03
     11.634  0.8100E+01  0.1279E+03
     11.646  0.9025E+01  0.1280E+03
     11.658  0.1020E+02  0.1281E+03
     11.670  0.9522E+01  0.1282E+03
     11.682  0.9243E+01  0.1283E+03
     11.694  0.9533E+01  0.1284E+03
     11.706  0.8378E+01  0.1285E+03
     11.718  0.7555E+01  0.1286E+03
     11.730  0.7094E+01  0.1287E+03
     11.742  0.7051E+01  0.1288E+03
     11.754  0.8701E+01  0.1289E+03
     11.766  0.1279E+02  0.1290E+03
     11.778  0.1140E+02  0.1292E+03
     11.790  0.8852E+01  0.1293E+03
     11.802  0.8348E+01  0.1294E+03
     11.814  0.8060E+01  0.1295E+03
     11.826  0.7977E+01  0.1296E+03
     11.838  0.1015E+02  0.1297E+03
     11.850  0.1157E+02  0.1298E+03
     11.862  0.1210E+02  0.1300E+03
     11.874  0.1238E+02  0.1301E+03
     11.886  0.1169E+02  0.1303E+03
     11.898  0.1250E+02  0.1304E+03
     11.910  0.1093E+02  0.1306E+03
     11.922  0.9283E+01  0.1307E+03
     11.934  0.9975E+01  0.1308E+03
     11.946  0.8997E+01  0.1309E+03
     11.959  0.7614E+01  0.1310E+03
     11.971  0.8793E+01  0.1311E+03
     11.983  0.1121E+02  0.1312E+03
     11.995  0.1048E+02  0.1314E+03
     12.007  0.1111E+02  0.1315E+03
     12.019  0.1229E+02  0.1316E+03
     12.031  0.1256E+02  0.1318E+03
     12.043  0.1169E+02  0.1319E+03
     12.055  0.1051E+02  0.1321E+03
     12.067  0.1043E+02  0.1322E+03
     12.079  0.1096E+02  0.1323E+03
     12.091  0.1065E+02  0.1324E+03
     12.103  0.1030E+02  0.1326E+03
     12.115  0.1122E+02  0.1327E+03
     12.127  0.9921E+01  0.1328E+03
     12.139  0.9927E+01  0.1329E+03
     12.151  0.1037E+02  0.1331E+03
     12.163  0.9005E+01  0.1332E+03
     12.175  0.8309E+01  0.1333E+03
     12.187  0.8650E+01  0.1334E+03
     12.199  0.9902E+01  0.1335E+03
     12.211  0.1071E+02  0.1336E+03
     12.223  0.1269E+02  0.1338E+03
     12.235  0.1195E+02  0.1339E+03
     12.247  0.1116E+02  0.1341E+03
     12.259  0.1101E+02  0.1342E+03
     12.271  0.1285E+02  0.1343E+03
     12.283  0.1348E+02  0.1345E+03
     12.295  0.1071E+02  0.1346E+03
     12.307  0.9475E+01  0.1347E+03
     12.319  0.9530E+01  0.1349E+03
     12.331  0.1028E+02  0.1350E+03
     12.344  0.8775E+01  0.1351E+03
     12.356  0.9257E+01  0.1352E+03
     12.368  0.1079E+02  0.1353E+03
     12.380  0.8904E+01  0.1354E+03
     12.392  0.9175E+01  0.1356E+03
     12.404  0.1134E+02  0.1357E+03
     12.416  0.1231E+02  0.1358E+03
     12.428  0.1224E+02  0.1360E+03
     12.440  0.9904E+01  0.1361E+03
     12.452  0.8574E+01  0.1362E+03
     12.464  0.8988E+01  0.1363E+03
     12.476  0.1039E+02  0.1364E+03
     12.488  0.1094E+02  0.1366E+03
     12.500  0.1170E+02  0.1367E+03
     12.512  0.1235E+02  0.1369E+03
     12.524  0.1128E+02  0.1370E+03
     12.536  0.8432E+01  0.1371E+03
     12.548  0.8592E+01  0.1372E+03
     12.560  0.9553E+01  0.1373E+03
     12.572  0.8950E+01  0.1374E+03
     12.584  0.7354E+01  0.1375E+03
     12.596  0.9226E+01  0.1376E+03
     12.608  0.1072E+02  0.1378E+03
     12.620  0.9893E+01  0.1379E+03
     12.632  0.9693E+01  0.1380E+03
     12.644  0.1146E+02  0.1381E+03
     12.656  0.1072E+02  0.1383E+03
     12.668  0.9684E+01  0.1384E+03
     12.680  0.9798E+01  0.1385E+03
     12.692  0.9282E+01  0.1386E+03
     12.704  0.8156E+01  0.1387E+03
     12.716  0.9338E+01  0.1388E+03
     12.729  0.9231E+01  0.1389E+03
     12.741  0.8278E+01  0.1390E+03
     12.753  0.8275E+01  0.1391E+03
     12.765  0.9103E+01  0.1392E+03
     12.777  0.9375E+01  0.1393E+03
     12.789  0.1076E+02  0.1395E+03
     12.801  0.1099E+02  0.1396E+03
     12.813  0.7836E+01  0.1397E+03
     12.825  0.9557E+01  0.1398E+03
     12.837  0.9737E+01  0.1399E+03
     12.849  0.8562E+01  0.1400E+03
     12.861  0.9869E+01  0.1402E+03
     12.873  0.1194E+02  0.1403E+03
     12.885  0.1134E+02  0.1404E+03
     12.897  0.1079E+02  0.1406E+03
     12.909  0.1221E+02  0.1407E+03
     12.921  0.1291E+02  0.1409E+03
     12.933  0.1289E+02  0.1410E+03
     12.945  0.1165E+02  0.1412E+03
     12.957  0.1306E+02  0.1413E+03
     12.969  0.1261E+02  0.1415E+03
     12.981  0.1194E+02  0.1416E+03
     12.993  0.1202E+02  0.1418E+03
     13.005  0.1282E+02  0.1419E+03
     13.017  0.1232E+02  0.1421E+03
     13.029  0.1090E+02  0.1422E+03
     13.041  0.1196E+02  0.1423E+03
     13.053  0.1227E+02  0.1425E+03
     13.065  0.1021E+02  0.1426E+03
     13.077  0.1077E+02  0.1427E+03
     13.089  0.8835E+01  0.1428E+03
     13.101  0.7387E+01  0.1429E+03
     13.114  0.8867E+01  0.1430E+03
     13.126  0.9694E+01  0.1432E+03
     13.138  0.8651E+01  0.1433E+03
     13.150  0.7154E+01  0.1433E+03
     13.162  0.7741E+01  0.1434E+03
     13.174  0.1111E+02  0.1436E+03
     13.186  0.9947E+01  0.1437E+03
     13.198  0.9395E+01  0.1438E+03
     13.210  0.9929E+01  0.1439E+03
     13.222  0.8254E+01  0.1440E+03
     13.234  0.7099E+01  0.1441E+03
     13.246  0.9550E+01  0.1442E+03
     13.258  0.1042E+02  0.1443E+03
     13.270  0.7763E+01  0.1444E+03
     13.282  0.5918E+01  0.1445E+03
     13.294  0.5481E+01  0.1446E+03
     13.306  0.7334E+01  0.1447E+03
     13.318  0.8327E+01  0.1448E+03
     13.330  0.8204E+01  0.1449E+03
     13.342  0.1065E+02  0.1450E+03
     13.354  0.1120E+02  0.1451E+03
     13.366  0.1114E+02  0.1453E+03
     13.378  0.9817E+01  0.1454E+03
     13.390  0.8811E+01  0.1455E+03
     13.402  0.9818E+01  0.1456E+03
     13.414  0.1016E+02  0.1457E+03
     13.426  0.8123E+01  0.1458E+03
     13.438  0.7138E+01  0.1459E+03
     13.450  0.8490E+01  0.1460E+03
     13.462  0.9344E+01  0.1461E+03
     13.474  0.9093E+01  0.1462E+03
     13.487  0.8779E+01  0.1463E+03
     13.499  0.1006E+02  0.1465E+03
     13.511  0.1138E+02  0.1466E+03
     13.523  0.1275E+02  0.1468E+03
     13.535  0.1238E+02  0.1469E+03
     13.547  0.9815E+01  0.1470E+03
     13.559  0.1026E+02  0.1471E+03
     13.571  0.1069E+02  0.1473E+03
     13.583  0.9027E+01  0.1474E+03
     13.595  0.1028E+02  0.1475E+03
     13.607  0.1077E+02  0.1476E+03
     13.619  0.1117E+02  0.1478E+03
     13.631  0.1157E+02  0.1479E+03
     13.643  0.1336E+02  0.1481E+03
     13.655  0.1387E+02  0.1482E+03
     13.667  0.1446E+02  0.1484E+03
     13.679  0.1285E+02  0.1486E+03
     13.691  0.1298E+02  0.1487E+03
     13.703  0.1437E+02  0.1489E+03
     13.715  0.1647E+02  0.1491E+03
     13.727  0.1558E+02  0.1493E+03
     13.739  0.1360E+02  0.1494E+03
     13.751  0.1208E+02  0.1496E+03
     13.763  0.1245E+02  0.1497E+03
     13.775  0.1022E+02  0.1499E+03
     13.787  0.8736E+01  0.1500E+03
     13.799  0.9312E+01  0.1501E+03
     13.811  0.9257E+01  0.1502E+03
     13.823  0.8666E+01  0.1503E+03
     13.835  0.9525E+01  0.1504E+03
     13.847  0.1066E+02  0.1505E+03
     13.859  0.1149E+02  0.1507E+03
     13.872  0.1143E+02  0.1508E+03
     13.884  0.1007E+02  0.1509E+03
     13.896  0.1030E+02  0.1511E+03
     13.908  0.1160E+02  0.1512E+03
     13.920  0.1303E+02  0.1514E+03
     13.932  0.1287E+02  0.1515E+03
     13.944  0.1251E+02  0.1517E+03
     13.956  0.1171E+02  0.1518E+03
     13.968  0.1385E+02  0.1520E+03
     13.980  0.1259E+02  0.1521E+03
     13.992  0.1210E+02  0.1523E+03
     14.004  0.1329E+02  0.1524E+03
     14.016  0.1281E+02  0.1526E+03
     14.028  0.1148E+02  0.1527E+03
     14.040  0.1057E+02  0.1528E+03
     14.052  0.1006E+02  0.1530E+03
     14.064  0.1055E+02  0.1531E+03
     14.076  0.1031E+02  0.1532E+03
     14.088  0.9200E+01  0.1533E+03
     14.100  0.9051E+01  0.1534E+03
     14.112  0.1042E+02  0.1536E+03
     14.124  0.1215E+02  0.1537E+03
     14.136  0.1187E+02  0.1538E+03
     14.148  0.1000E+02  0.1540E+03
     14.160  0.9074E+01  0.1541E+03
     14.172  0.9715E+01  0.1542E+03
     14.184  0.9672E+01  0.1543E+03
     14.196  0.9250E+01  0.1544E+03
     14.208  0.8048E+01  0.1545E+03
     14.220  0.7436E+01  0.1546E+03
     14.232  0.6059E+01  0.1547E+03
     14.244  0.6266E+01  0.1548E+03
     14.257  0.7149E+01  0.1548E+03
     14.269  0.8062E+01  0.1549E+03
     14.281  0.1000E+02  0.1551E+03
     14.293  0.1051E+02  0.1552E+03
     14.305  0.9679E+01  0.1553E+03
     14.317  0.8905E+01  0.1554E+03
     14.329  0.9294E+01  0.1555E+03
     14.341  0.9484E+01  0.1556E+03
     14.353  0.8341E+01  0.1557E+03
     14.365  0.7311E+01  0.1558E+03
     14.377  0.8314E+01  0.1559E+03
     14.389  0.9085E+01  0.1560E+03
     14.401  0.9415E+01  0.1561E+03
     14.413  0.6686E+01  0.1562E+03
     14.425  0.6677E+01  0.1563E+03
     14.437  0.7533E+01  0.1564E+03
     14.449  0.7247E+01  0.1565E+03
     14.461  0.8321E+01  0.1566E+03
     14.473  0.9250E+01  0.1567E+03
     14.485  0.7589E+01  0.1568E+03
     14.497  0.7636E+01  0.1569E+03
     14.509  0.1039E+02  0.1570E+03
     14.521  0.9533E+01  0.1571E+03
     14.533  0.8222E+01  0.1572E+03
     14.545  0.7874E+01  0.1573E+03
     14.557  0.7595E+01  0.1574E+03
     14.569  0.7544E+01  0.1575E+03
     14.581  0.8157E+01  0.1576E+03
     14.593  0.6979E+01  0.1577E+03
     14.605  0.7137E+01  0.1578E+03
     14.617  0.8224E+01  0.1579E+03
     14.630  0.8732E+01  0.1580E+03
     14.642  0.9224E+01  0.1581E+03
     14.654  0.1020E+02  0.1582E+03
     14.666  0.9946E+01  0.1583E+03
     14.678  0.8421E+01  0.1584E+03
     14.690  0.7872E+01  0.1585E+03
     14.702  0.9402E+01  0.1586E+03
     14.714  0.1133E+02  0.1588E+03
     14.726  0.1186E+02  0.1589E+03
     14.738  0.1139E+02  0.1590E+03
     14.750  0.1130E+02  0.1592E+03
     14.762  0.1066E+02  0.1593E+03
     14.774  0.8764E+01  0.1594E+03
     14.786  0.8300E+01  0.1595E+03
     14.798  0.9721E+01  0.1596E+03
     14.810  0.8303E+01  0.1597E+03
     14.822  0.7343E+01  0.1598E+03
     14.834  0.6696E+01  0.1599E+03
     14.846  0.8320E+01  0.1600E+03
     14.858  0.9379E+01  0.1601E+03
     14.870  0.7647E+01  0.1602E+03
     14.882  0.7595E+01  0.1603E+03
     14.894  0.7508E+01  0.1604E+03
     14.906  0.5746E+01  0.1605E+03
     14.918  0.7642E+01  0.1605E+03
     14.930  0.8239E+01  0.1606E+03
     14.942  0.9251E+01  0.1608E+03
     14.954  0.8254E+01  0.1609E+03
     14.966  0.6807E+01  0.1609E+03
     14.978  0.6304E+01  0.1610E+03
     14.990  0.7422E+01  0.1611E+03
     15.002  0.9493E+01  0.1612E+03
     15.015  0.8284E+01  0.1613E+03
     15.027  0.7256E+01  0.1614E+03
     15.039  0.7071E+01  0.1615E+03
     15.051  0.7809E+01  0.1616E+03
     15.063  0.7515E+01  0.1617E+03
     15.075  0.6605E+01  0.1618E+03
     15.087  0.6503E+01  0.1618E+03
     15.099  0.7178E+01  0.1619E+03
     15.111  0.8114E+01  0.1620E+03
     15.123  0.9485E+01  0.1621E+03
     15.135  0.9426E+01  0.1622E+03
     15.147  0.7769E+01  0.1623E+03
     15.159  0.9109E+01  0.1624E+03
     15.171  0.1061E+02  0.1626E+03
     15.183  0.1123E+02  0.1627E+03
     15.195  0.1086E+02  0.1628E+03
     15.207  0.1069E+02  0.1630E+03
     15.219  0.8741E+01  0.1631E+03
     15.231  0.7546E+01  0.1632E+03
     15.243  0.9538E+01  0.1633E+03
     15.255  0.8552E+01  0.1634E+03
     15.267  0.7561E+01  0.1635E+03
     15.279  0.7050E+01  0.1636E+03
     15.291  0.8766E+01  0.1637E+03
     15.303  0.8726E+01  0.1638E+03
     15.315  0.1008E+02  0.1639E+03
     15.327  0.1209E+02  0.1640E+03
     15.339  0.1094E+02  0.1642E+03
     15.351  0.1110E+02  0.1643E+03
     15.363  0.1054E+02  0.1644E+03
     15.375  0.9879E+01  0.1645E+03
     15.387  0.1079E+02  0.1647E+03
     15.400  0.1008E+02  0.1648E+03
     15.412  0.8917E+01  0.1649E+03
     15.424  0.1023E+02  0.1650E+03
     15.436  0.1094E+02  0.1652E+03
     15.448  0.9548E+01  0.1653E+03
     15.460  0.8528E+01  0.1654E+03
     15.472  0.7589E+01  0.1655E+03
     15.484  0.9708E+01  0.1656E+03
     15.496  0.1207E+02  0.1657E+03
     15.508  0.1026E+02  0.1659E+03
     15.520  0.1233E+02  0.1660E+03
     15.532  0.1468E+02  0.1662E+03
     15.544  0.1317E+02  0.1663E+03
     15.556  0.1083E+02  0.1665E+03
     15.568  0.9544E+01  0.1666E+03
     15.580  0.9363E+01  0.1667E+03
     15.592  0.9955E+01  0.1668E+03
     15.604  0.8917E+01  0.1669E+03
     15.616  0.9259E+01  0.1670E+03
     15.628  0.9815E+01  0.1672E+03
     15.640  0.8559E+01  0.1673E+03
     15.652  0.7905E+01  0.1674E+03
     15.664  0.9047E+01  0.1675E+03
     15.676  0.9162E+01  0.1676E+03
     15.688  0.7778E+01  0.1677E+03
     15.700  0.5647E+01  0.1677E+03
     15.712  0.6972E+01  0.1678E+03
     15.724  0.7750E+01  0.1679E+03
     15.736  0.8161E+01  0.1680E+03
     15.748  0.8683E+01  0.1681E+03
     15.760  0.7838E+01  0.1682E+03
     15.773  0.7183E+01  0.1683E+03
     15.785  0.7232E+01  0.1684E+03
     15.797  0.7402E+01  0.1685E+03
     15.809  0.7876E+01  0.1686E+03
     15.821  0.6988E+01  0.1686E+03
     15.833  0.8303E+01  0.1687E+03
     15.845  0.1041E+02  0.1689E+03
     15.857  0.1086E+02  0.1690E+03
     15.869  0.1117E+02  0.1691E+03
     15.881  0.1095E+02  0.1693E+03
     15.893  0.1257E+02  0.1694E+03
     15.905  0.1145E+02  0.1696E+03
     15.917  0.9962E+01  0.1697E+03
     15.929  0.1024E+02  0.1698E+03
     15.941  0.1004E+02  0.1699E+03
     15.953  0.9994E+01  0.1700E+03
     15.965  0.1019E+02  0.1702E+03
     15.977  0.1184E+02  0.1703E+03
     15.989  0.9982E+01  0.1704E+03
     16.001  0.8832E+01  0.1705E+03
     16.013  0.8703E+01  0.1706E+03
     16.025  0.9753E+01  0.1708E+03
     16.037  0.1069E+02  0.1709E+03
     16.049  0.1093E+02  0.1710E+03
     16.061  0.8785E+01  0.1711E+03
     16.073  0.8783E+01  0.1712E+03
     16.085  0.1143E+02  0.1714E+03
     16.097  0.1231E+02  0.1715E+03
     16.109  0.1368E+02  0.1717E+03
     16.121  0.1550E+02  0.1719E+03
     16.133  0.1282E+02  0.1720E+03
     16.145  0.9366E+01  0.1721E+03
     16.158  0.1204E+02  0.1723E+03
     16.170  0.1281E+02  0.1724E+03
     16.182  0.9244E+01  0.1725E+03
     16.194  0.9713E+01  0.1727E+03
     16.206  0.1150E+02  0.1728E+03
     16.218  0.9075E+01  0.1729E+03
     16.230  0.8231E+01  0.1730E+03
     16.242  0.8647E+01  0.1731E+03
     16.254  0.9860E+01  0.1732E+03
     16.266  0.9210E+01  0.1733E+03
     16.278  0.7661E+01  0.1734E+03
     16.290  0.1015E+02  0.1736E+03
     16.302  0.1250E+02  0.1737E+03
     16.314  0.1108E+02  0.1738E+03
     16.326  0.9481E+01  0.1739E+03
     16.338  0.9996E+01  0.1741E+03
     16.350  0.1139E+02  0.1742E+03
     16.362  0.9354E+01  0.1743E+03
     16.374  0.8197E+01  0.1744E+03
     16.386  0.9411E+01  0.1745E+03
     16.398  0.1133E+02  0.1747E+03
     16.410  0.1099E+02  0.1748E+03
     16.422  0.1114E+02  0.1749E+03
     16.434  0.1154E+02  0.1751E+03
     16.446  0.1073E+02  0.1752E+03
     16.458  0.8225E+01  0.1753E+03
     16.470  0.1024E+02  0.1754E+03
     16.482  0.1270E+02  0.1756E+03
     16.494  0.1258E+02  0.1757E+03
     16.506  0.1093E+02  0.1759E+03
     16.518  0.8533E+01  0.1760E+03
     16.530  0.1042E+02  0.1761E+03
     16.543  0.1033E+02  0.1762E+03
     16.555  0.8265E+01  0.1763E+03
     16.567  0.9800E+01  0.1764E+03
     16.579  0.1045E+02  0.1766E+03
     16.591  0.9106E+01  0.1767E+03
     16.603  0.9335E+01  0.1768E+03
     16.615  0.9777E+01  0.1769E+03
     16.627  0.9231E+01  0.1770E+03
     16.639  0.8445E+01  0.1771E+03
     16.651  0.1220E+02  0.1773E+03
     16.663  0.1091E+02  0.1774E+03
     16.675  0.1028E+02  0.1775E+03
     16.687  0.1183E+02  0.1777E+03
     16.699  0.1116E+02  0.1778E+03
     16.711  0.1325E+02  0.1779E+03
     16.723  0.1142E+02  0.1781E+03
     16.735  0.9261E+01  0.1782E+03
     16.747  0.7712E+01  0.1783E+03
     16.759  0.8734E+01  0.1784E+03
     16.771  0.8498E+01  0.1785E+03
     16.783  0.8145E+01  0.1786E+03
     16.795  0.6998E+01  0.1787E+03
     16.807  0.5429E+01  0.1787E+03
     16.819  0.6945E+01  0.1788E+03
     16.831  0.7995E+01  0.1789E+03
     16.843  0.8259E+01  0.1790E+03
     16.855  0.8100E+01  0.1791E+03
     16.867  0.8067E+01  0.1792E+03
     16.879  0.8330E+01  0.1793E+03
     16.891  0.8951E+01  0.1794E+03
     16.903  0.9938E+01  0.1795E+03
     16.915  0.9517E+01  0.1797E+03
     16.928  0.7034E+01  0.1797E+03
     16.940  0.6840E+01  0.1798E+03
     16.952  0.9131E+01  0.1799E+03
     16.964  0.1060E+02  0.1801E+03
     16.976  0.8883E+01  0.1802E+03
     16.988  0.8538E+01  0.1803E+03
     17.000  0.1079E+02  0.1804E+03
     17.012  0.1275E+02  0.1806E+03
     17.024  0.1368E+02  0.1807E+03
     17.036  0.1194E+02  0.1809E+03
     17.048  0.1158E+02  0.1810E+03
     17.060  0.1154E+02  0.1811E+03
     17.072  0.9726E+01  0.1813E+03
     17.084  0.8780E+01  0.1814E+03
     17.096  0.9228E+01  0.1815E+03
     17.108  0.1064E+02  0.1816E+03
     17.120  0.1193E+02  0.1817E+03
     17.132  0.1084E+02  0.1819E+03
     17.144  0.1066E+02  0.1820E+03
     17.156  0.1044E+02  0.1821E+03
     17.168  0.9867E+01  0.1822E+03
     17.180  0.8975E+01  0.1824E+03
     17.192  0.8356E+01  0.1825E+03
     17.204  0.9005E+01  0.1826E+03
     17.216  0.8533E+01  0.1827E+03
     17.228  0.9776E+01  0.1828E+03
     17.240  0.1153E+02  0.1829E+03
     17.252  0.1121E+02  0.1831E+03
     17.264  0.1132E+02  0.1832E+03
     17.276  0.1168E+02  0.1833E+03
     17.288  0.1008E+02  0.1835E+03
     17.301  0.9874E+01  0.1836E+03
     17.313  0.1146E+02  0.1837E+03
     17.325  0.1267E+02  0.1839E+03
     17.337  0.1157E+02  0.1840E+03
     17.349  0.1221E+02  0.1842E+03
     17.361  0.1176E+02  0.1843E+03
     17.373  0.1074E+02  0.1844E+03
     17.385  0.1322E+02  0.1846E+03
     17.397  0.1372E+02  0.1847E+03
     17.409  0.1299E+02  0.1849E+03
     17.421  0.1273E+02  0.1851E+03
     17.433  0.1261E+02  0.1852E+03
     17.445  0.1151E+02  0.1853E+03
     17.457  0.1099E+02  0.1855E+03
     17.469  0.9453E+01  0.1856E+03
     17.481  0.1019E+02  0.1857E+03
     17.493  0.1029E+02  0.1858E+03
     17.505  0.9455E+01  0.1860E+03
     17.517  0.9861E+01  0.1861E+03
     17.529  0.1018E+02  0.1862E+03
     17.541  0.8129E+01  0.1863E+03
     17.553  0.7894E+01  0.1864E+03
     17.565  0.9949E+01  0.1865E+03
     17.577  0.9996E+01  0.1866E+03
     17.589  0.1121E+02  0.1868E+03
     17.601  0.1364E+02  0.1869E+03
     17.613  0.1381E+02  0.1871E+03
     17.625  0.1067E+02  0.1872E+03
     17.637  0.1213E+02  0.1874E+03
     17.649  0.1402E+02  0.1875E+03
     17.661  0.1364E+02  0.1877E+03
     17.673  0.1067E+02  0.1878E+03
     17.686  0.1145E+02  0.1880E+03
     17.698  0.1290E+02  0.1881E+03
     17.710  0.1370E+02  0.1883E+03
     17.722  0.1310E+02  0.1884E+03
     17.734  0.1556E+02  0.1886E+03
     17.746  0.1426E+02  0.1888E+03
     17.758  0.1136E+02  0.1889E+03
     17.770  0.1027E+02  0.1891E+03
     17.782  0.1187E+02  0.1892E+03
     17.794  0.1254E+02  0.1894E+03
     17.806  0.1125E+02  0.1895E+03
     17.818  0.1084E+02  0.1896E+03
     17.830  0.1097E+02  0.1898E+03
     17.842  0.1449E+02  0.1899E+03
     17.854  0.1471E+02  0.1901E+03
     17.866  0.1430E+02  0.1903E+03
     17.878  0.1427E+02  0.1904E+03
     17.890  0.1230E+02  0.1906E+03
     17.902  0.9484E+01  0.1907E+03
     17.914  0.7994E+01  0.1908E+03
     17.926  0.8636E+01  0.1909E+03
     17.938  0.1001E+02  0.1910E+03
     17.950  0.9257E+01  0.1911E+03
     17.962  0.1005E+02  0.1913E+03
     17.974  0.1115E+02  0.1914E+03
     17.986  0.1368E+02  0.1916E+03
     17.998  0.1381E+02  0.1917E+03
     18.010  0.1188E+02  0.1919E+03
     18.022  0.1411E+02  0.1920E+03
     18.034  0.1424E+02  0.1922E+03
     18.046  0.1303E+02  0.1924E+03
     18.058  0.1169E+02  0.1925E+03
     18.071  0.1131E+02  0.1926E+03
     18.083  0.1360E+02  0.1928E+03
     18.095  0.1315E+02  0.1930E+03
     18.107  0.1181E+02  0.1931E+03
     18.119  0.1351E+02  0.1933E+03
     18.131  0.1295E+02  0.1934E+03
     18.143  0.1044E+02  0.1936E+03
     18.155  0.1177E+02  0.1937E+03
     18.167  0.1191E+02  0.1938E+03
     18.179  0.1023E+02  0.1940E+03
     18.191  0.1133E+02  0.1941E+03
     18.203  0.1004E+02  0.1942E+03
     18.215  0.1085E+02  0.1943E+03
     18.227  0.1242E+02  0.1945E+03
     18.239  0.1296E+02  0.1947E+03
     18.251  0.1160E+02  0.1948E+03
     18.263  0.1101E+02  0.1949E+03
     18.275  0.9509E+01  0.1950E+03
     18.287  0.8853E+01  0.1951E+03
     18.299  0.9466E+01  0.1953E+03
     18.311  0.9725E+01  0.1954E+03
     18.323  0.1190E+02  0.1955E+03
     18.335  0.1181E+02  0.1957E+03
     18.347  0.1195E+02  0.1958E+03
     18.359  0.1087E+02  0.1959E+03
     18.371  0.1179E+02  0.1961E+03
     18.383  0.1187E+02  0.1962E+03
     18.395  0.1013E+02  0.1963E+03
     18.407  0.9219E+01  0.1965E+03
     18.419  0.8915E+01  0.1966E+03
     18.431  0.8332E+01  0.1967E+03
     18.444  0.8610E+01  0.1968E+03
     18.456  0.1027E+02  0.1969E+03
     18.468  0.1148E+02  0.1970E+03
     18.480  0.1084E+02  0.1972E+03
     18.492  0.1052E+02  0.1973E+03
     18.504  0.1055E+02  0.1974E+03
     18.516  0.1156E+02  0.1976E+03
     18.528  0.1472E+02  0.1977E+03
     18.540  0.1247E+02  0.1979E+03
     18.552  0.9776E+01  0.1980E+03
     18.564  0.1061E+02  0.1981E+03
     18.576  0.1066E+02  0.1983E+03
     18.588  0.1014E+02  0.1984E+03
     18.600  0.9755E+01  0.1985E+03
     18.612  0.1175E+02  0.1986E+03
     18.624  0.1043E+02  0.1988E+03
     18.636  0.8171E+01  0.1989E+03
     18.648  0.6814E+01  0.1989E+03
     18.660  0.8133E+01  0.1990E+03
     18.672  0.1558E+02  0.1992E+03
     18.684  0.1579E+02  0.1994E+03
     18.696  0.1279E+02  0.1996E+03
     18.708  0.1230E+02  0.1997E+03
     18.720  0.1291E+02  0.1999E+03
     18.732  0.1341E+02  0.2000E+03
     18.744  0.1295E+02  0.2002E+03
     18.756  0.1356E+02  0.2004E+03
     18.768  0.1260E+02  0.2005E+03
     18.780  0.1274E+02  0.2007E+03
     18.792  0.1304E+02  0.2008E+03
     18.804  0.1246E+02  0.2010E+03
     18.816  0.1110E+02  0.2011E+03
     18.829  0.1273E+02  0.2012E+03
     18.841  0.1511E+02  0.2014E+03
     18.853  0.1596E+02  0.2016E+03
     18.865  0.1466E+02  0.2018E+03
     18.877  0.1372E+02  0.2020E+03
     18.889  0.1245E+02  0.2021E+03
     18.901  0.1292E+02  0.2023E+03
     18.913  0.1117E+02  0.2024E+03
     18.925  0.8474E+01  0.2025E+03
     18.937  0.7939E+01  0.2026E+03
     18.949  0.7219E+01  0.2027E+03
     18.961  0.6839E+01  0.2028E+03
     18.973  0.8565E+01  0.2029E+03
     18.985  0.9331E+01  0.2030E+03
     18.997  0.1014E+02  0.2031E+03
     19.009  0.1084E+02  0.2032E+03
     19.021  0.9612E+01  0.2034E+03
     19.033  0.1022E+02  0.2035E+03
     19.045  0.1045E+02  0.2036E+03
     19.057  0.1029E+02  0.2037E+03
     19.069  0.1180E+02  0.2039E+03
     19.081  0.1156E+02  0.2040E+03
     19.093  0.1049E+02  0.2041E+03
     19.105  0.1137E+02  0.2043E+03
     19.117  0.1394E+02  0.2044E+03
     19.129  0.1284E+02  0.2046E+03
     19.141  0.9815E+01  0.2047E+03
     19.153  0.8973E+01  0.2048E+03
     19.165  0.9493E+01  0.2049E+03
     19.177  0.1173E+02  0.2051E+03
     19.189  0.1337E+02  0.2052E+03
     19.201  0.1268E+02  0.2054E+03
     19.214  0.1259E+02  0.2055E+03
     19.226  0.1457E+02  0.2057E+03
     19.238  0.1664E+02  0.2059E+03
     19.250  0.1399E+02  0.2061E+03
     19.262  0.1041E+02  0.2062E+03
     19.274  0.9673E+01  0.2063E+03
     19.286  0.9707E+01  0.2064E+03
     19.298  0.1005E+02  0.2066E+03
     19.310  0.9706E+01  0.2067E+03
     19.322  0.1055E+02  0.2068E+03
     19.334  0.9859E+01  0.2069E+03
     19.346  0.1027E+02  0.2070E+03
     19.358  0.1335E+02  0.2072E+03
     19.370  0.1372E+02  0.2074E+03
     19.382  0.1128E+02  0.2075E+03
     19.394  0.1083E+02  0.2076E+03
     19.406  0.1086E+02  0.2078E+03
     19.418  0.1024E+02  0.2079E+03
     19.430  0.9840E+01  0.2080E+03
     19.442  0.9630E+01  0.2081E+03
     19.454  0.8965E+01  0.2082E+03
     19.466  0.9939E+01  0.2084E+03
     19.478  0.9367E+01  0.2085E+03
     19.490  0.1013E+02  0.2086E+03
     19.502  0.1142E+02  0.2087E+03
     19.514  0.1079E+02  0.2089E+03
     19.526  0.1089E+02  0.2090E+03
     19.538  0.1242E+02  0.2091E+03
     19.550  0.1270E+02  0.2093E+03
     19.562  0.1263E+02  0.2094E+03
     19.574  0.1214E+02  0.2096E+03
     19.587  0.1135E+02  0.2097E+03
     19.599  0.8387E+01  0.2098E+03
     19.611  0.9345E+01  0.2099E+03
     19.623  0.1108E+02  0.2101E+03
     19.635  0.1030E+02  0.2102E+03
     19.647  0.8733E+01  0.2103E+03
     19.659  0.8040E+01  0.2104E+03
     19.671  0.9560E+01  0.2105E+03
     19.683  0.1125E+02  0.2106E+03
     19.695  0.1103E+02  0.2108E+03
     19.707  0.1100E+02  0.2109E+03
     19.719  0.1235E+02  0.2111E+03
     19.731  0.1091E+02  0.2112E+03
     19.743  0.1030E+02  0.2113E+03
     19.755  0.1039E+02  0.2114E+03
     19.767  0.1034E+02  0.2116E+03
     19.779  0.1189E+02  0.2117E+03
     19.791  0.1310E+02  0.2119E+03
     19.803  0.1441E+02  0.2120E+03
     19.815  0.1407E+02  0.2122E+03
     19.827  0.1350E+02  0.2124E+03
     19.839  0.1393E+02  0.2125E+03
     19.851  0.1135E+02  0.2127E+03
     19.863  0.8562E+01  0.2128E+03
     19.875  0.7827E+01  0.2129E+03
     19.887  0.8844E+01  0.2130E+03
     19.899  0.8125E+01  0.2131E+03
     19.911  0.7081E+01  0.2132E+03
     19.923  0.6730E+01  0.2132E+03
     19.935  0.6737E+01  0.2133E+03
     19.947  0.7702E+01  0.2134E+03
     19.959  0.1116E+02  0.2136E+03
     19.972  0.1143E+02  0.2137E+03
     19.984  0.1063E+02  0.2138E+03
     19.996  0.9870E+01  0.2139E+03
     20.008  0.9940E+01  0.2141E+03
     20.020  0.1142E+02  0.2142E+03
     20.032  0.9998E+01  0.2143E+03
     20.044  0.8136E+01  0.2144E+03
     20.056  0.8749E+01  0.2145E+03
     20.068  0.9054E+01  0.2146E+03
     20.080  0.8818E+01  0.2147E+03
     20.092  0.9201E+01  0.2148E+03
     20.104  0.1053E+02  0.2150E+03
     20.116  0.1147E+02  0.2151E+03
     20.128  0.1072E+02  0.2152E+03
     20.140  0.1040E+02  0.2154E+03
     20.152  0.1023E+02  0.2155E+03
     20.164  0.1082E+02  0.2156E+03
     20.176  0.1259E+02  0.2158E+03
     20.188  0.1219E+02  0.2159E+03
     20.200  0.9140E+01  0.2160E+03
     20.212  0.1007E+02  0.2161E+03
     20.224  0.1249E+02  0.2163E+03
     20.236  0.1296E+02  0.2164E+03
     20.248  0.9752E+01  0.2166E+03
     20.260  0.7591E+01  0.2167E+03
     20.272  0.1007E+02  0.2168E+03
     20.284  0.1149E+02  0.2169E+03
     20.296  0.9889E+01  0.2170E+03
     20.308  0.9812E+01  0.2172E+03
     20.320  0.1415E+02  0.2173E+03
     20.332  0.1471E+02  0.2175E+03
     20.344  0.1474E+02  0.2177E+03
     20.357  0.1604E+02  0.2179E+03
     20.369  0.1477E+02  0.2181E+03
     20.381  0.1379E+02  0.2182E+03
     20.393  0.1091E+02  0.2183E+03
     20.405  0.1084E+02  0.2185E+03
     20.417  0.1146E+02  0.2186E+03
     20.429  0.1323E+02  0.2188E+03
     20.441  0.1220E+02  0.2189E+03
     20.453  0.1246E+02  0.2191E+03
     20.465  0.1290E+02  0.2192E+03
     20.477  0.1499E+02  0.2194E+03
     20.489  0.1322E+02  0.2196E+03
     20.501  0.1041E+02  0.2197E+03
     20.513  0.1167E+02  0.2198E+03
     20.525  0.1222E+02  0.2200E+03
     20.537  0.1239E+02  0.2201E+03
     20.549  0.1406E+02  0.2203E+03
     20.561  0.1511E+02  0.2205E+03
     20.573  0.1282E+02  0.2206E+03
     20.585  0.9976E+01  0.2208E+03
     20.597  0.1018E+02  0.2209E+03
     20.609  0.1172E+02  0.2210E+03
     20.621  0.1157E+02  0.2212E+03
     20.633  0.1249E+02  0.2213E+03
     20.645  0.1030E+02  0.2214E+03
     20.657  0.1065E+02  0.2216E+03
     20.669  0.1298E+02  0.2217E+03
     20.681  0.1465E+02  0.2219E+03
     20.693  0.1639E+02  0.2221E+03
     20.705  0.1397E+02  0.2223E+03
     20.717  0.1231E+02  0.2224E+03
     20.729  0.1373E+02  0.2226E+03
     20.742  0.1672E+02  0.2228E+03
     20.754  0.1627E+02  0.2230E+03
     20.766  0.1526E+02  0.2231E+03
     20.778  0.1431E+02  0.2233E+03
     20.790  0.1586E+02  0.2235E+03
     20.802  0.1610E+02  0.2237E+03
     20.814  0.1213E+02  0.2239E+03
     20.826  0.1156E+02  0.2240E+03
     20.838  0.1217E+02  0.2241E+03
     20.850  0.1434E+02  0.2243E+03
     20.862  0.1337E+02  0.2245E+03
     20.874  0.1224E+02  0.2246E+03
     20.886  0.1324E+02  0.2248E+03
     20.898  0.1200E+02  0.2249E+03
     20.910  0.1103E+02  0.2251E+03
     20.922  0.1025E+02  0.2252E+03
     20.934  0.9442E+01  0.2253E+03
     20.946  0.7779E+01  0.2254E+03
     20.958  0.8279E+01  0.2255E+03
     20.970  0.1041E+02  0.2256E+03
     20.982  0.1157E+02  0.2257E+03
     20.994  0.1128E+02  0.2259E+03
     21.006  0.1078E+02  0.2260E+03
     21.018  0.1313E+02  0.2262E+03
     21.030  0.1501E+02  0.2264E+03
     21.042  0.1412E+02  0.2265E+03
     21.054  0.1503E+02  0.2267E+03
     21.066  0.1533E+02  0.2269E+03
     21.078  0.1504E+02  0.2271E+03
     21.090  0.1500E+02  0.2273E+03
     21.102  0.1609E+02  0.2274E+03
     21.115  0.1408E+02  0.2276E+03
     21.127  0.1199E+02  0.2278E+03
     21.139  0.1236E+02  0.2279E+03
     21.151  0.1609E+02  0.2281E+03
     21.163  0.1412E+02  0.2283E+03
     21.175  0.1315E+02  0.2284E+03
     21.187  0.1436E+02  0.2286E+03
     21.199  0.1402E+02  0.2288E+03
     21.211  0.1372E+02  0.2289E+03
     21.223  0.1236E+02  0.2291E+03
     21.235  0.1203E+02  0.2292E+03
     21.247  0.1041E+02  0.2294E+03
     21.259  0.1035E+02  0.2295E+03
     21.271  0.1260E+02  0.2296E+03
     21.283  0.1329E+02  0.2298E+03
     21.295  0.1170E+02  0.2299E+03
     21.307  0.1174E+02  0.2301E+03
     21.319  0.1256E+02  0.2302E+03
     21.331  0.1588E+02  0.2304E+03
     21.343  0.1557E+02  0.2306E+03
     21.355  0.1730E+02  0.2308E+03
     21.367  0.1709E+02  0.2310E+03
     21.379  0.1608E+02  0.2312E+03
     21.391  0.1407E+02  0.2314E+03
     21.403  0.1389E+02  0.2315E+03
     21.415  0.1646E+02  0.2317E+03
     21.427  0.1718E+02  0.2319E+03
     21.439  0.1375E+02  0.2321E+03
     21.451  0.1464E+02  0.2323E+03
     21.463  0.1539E+02  0.2325E+03
     21.475  0.1374E+02  0.2326E+03
     21.487  0.1346E+02  0.2328E+03
     21.500  0.1489E+02  0.2330E+03
     21.512  0.1621E+02  0.2332E+03
     21.524  0.1413E+02  0.2333E+03
     21.536  0.1335E+02  0.2335E+03
     21.548  0.1428E+02  0.2337E+03
     21.560  0.1264E+02  0.2338E+03
     21.572  0.1110E+02  0.2340E+03
     21.584  0.1125E+02  0.2341E+03
     21.596  0.1178E+02  0.2342E+03
     21.608  0.1056E+02  0.2344E+03
     21.620  0.9551E+01  0.2345E+03
     21.632  0.1070E+02  0.2346E+03
     21.644  0.1179E+02  0.2348E+03
     21.656  0.1245E+02  0.2349E+03
     21.668  0.1306E+02  0.2351E+03
     21.680  0.1315E+02  0.2352E+03
     21.692  0.1319E+02  0.2354E+03
     21.704  0.1418E+02  0.2355E+03
     21.716  0.1482E+02  0.2357E+03
     21.728  0.1175E+02  0.2359E+03
     21.740  0.1059E+02  0.2360E+03
     21.752  0.9927E+01  0.2361E+03
     21.764  0.8767E+01  0.2362E+03
     21.776  0.8427E+01  0.2363E+03
     21.788  0.1201E+02  0.2365E+03
     21.800  0.1341E+02  0.2366E+03
     21.812  0.1108E+02  0.2368E+03
     21.824  0.1175E+02  0.2369E+03
     21.836  0.1178E+02  0.2370E+03
     21.848  0.1330E+02  0.2372E+03
     21.860  0.1311E+02  0.2374E+03
     21.872  0.1243E+02  0.2375E+03
     21.885  0.1102E+02  0.2376E+03
     21.897  0.1222E+02  0.2378E+03
     21.909  0.1332E+02  0.2380E+03
     21.921  0.1536E+02  0.2381E+03
     21.933  0.1445E+02  0.2383E+03
     21.945  0.1160E+02  0.2385E+03
     21.957  0.9028E+01  0.2386E+03
     21.969  0.9733E+01  0.2387E+03
     21.981  0.1013E+02  0.2388E+03
     21.993  0.1150E+02  0.2389E+03
     22.005  0.1091E+02  0.2391E+03
     22.017  0.1095E+02  0.2392E+03
     22.029  0.1139E+02  0.2393E+03
     22.041  0.1189E+02  0.2395E+03
     22.053  0.1213E+02  0.2396E+03
     22.065  0.1181E+02  0.2398E+03
     22.077  0.1234E+02  0.2399E+03
     22.089  0.1195E+02  0.2401E+03
     22.101  0.1178E+02  0.2402E+03
     22.113  0.1193E+02  0.2403E+03
     22.125  0.1129E+02  0.2405E+03
     22.137  0.9633E+01  0.2406E+03
     22.149  0.1052E+02  0.2407E+03
     22.161  0.1196E+02  0.2409E+03
     22.173  0.1432E+02  0.2410E+03
     22.185  0.1610E+02  0.2412E+03
     22.197  0.1497E+02  0.2414E+03
     22.209  0.1384E+02  0.2416E+03
     22.221  0.1468E+02  0.2418E+03
     22.233  0.1310E+02  0.2419E+03
     22.245  0.1399E+02  0.2421E+03
     22.258  0.1213E+02  0.2422E+03
     22.270  0.1038E+02  0.2424E+03
     22.282  0.1081E+02  0.2425E+03
     22.294  0.1057E+02  0.2426E+03
     22.306  0.1018E+02  0.2427E+03
     22.318  0.1098E+02  0.2429E+03
     22.330  0.1327E+02  0.2430E+03
     22.342  0.1284E+02  0.2432E+03
     22.354  0.1239E+02  0.2433E+03
     22.366  0.1036E+02  0.2435E+03
     22.378  0.9393E+01  0.2436E+03
     22.390  0.9606E+01  0.2437E+03
     22.402  0.1032E+02  0.2438E+03
     22.414  0.1211E+02  0.2440E+03
     22.426  0.1171E+02  0.2441E+03
     22.438  0.1043E+02  0.2442E+03
     22.450  0.1117E+02  0.2444E+03
     22.462  0.1200E+02  0.2445E+03
     22.474  0.1119E+02  0.2446E+03
     22.486  0.1164E+02  0.2448E+03
     22.498  0.1259E+02  0.2449E+03
     22.510  0.1410E+02  0.2451E+03
     22.522  0.1296E+02  0.2452E+03
     22.534  0.1131E+02  0.2454E+03
     22.546  0.1094E+02  0.2455E+03
     22.558  0.9820E+01  0.2456E+03
     22.570  0.8879E+01  0.2457E+03
     22.582  0.9735E+01  0.2459E+03
     22.594  0.1077E+02  0.2460E+03
     22.606  0.1252E+02  0.2461E+03
     22.618  0.1323E+02  0.2463E+03
     22.630  0.1299E+02  0.2465E+03
     22.643  0.1062E+02  0.2466E+03
     22.655  0.9973E+01  0.2467E+03
     22.667  0.1066E+02  0.2468E+03
     22.679  0.1056E+02  0.2470E+03
     22.691  0.9897E+01  0.2471E+03
     22.703  0.1115E+02  0.2472E+03
     22.715  0.9520E+01  0.2473E+03
     22.727  0.8802E+01  0.2474E+03
     22.739  0.1008E+02  0.2476E+03
     22.751  0.1194E+02  0.2477E+03
     22.763  0.1251E+02  0.2478E+03
     22.775  0.1321E+02  0.2480E+03
     22.787  0.1363E+02  0.2482E+03
     22.799  0.1697E+02  0.2484E+03
     22.811  0.1559E+02  0.2486E+03
     22.823  0.1414E+02  0.2487E+03
     22.835  0.1454E+02  0.2489E+03
     22.847  0.1653E+02  0.2491E+03
     22.859  0.1818E+02  0.2493E+03
     22.871  0.1544E+02  0.2495E+03
     22.883  0.1229E+02  0.2497E+03
     22.895  0.1107E+02  0.2498E+03
     22.907  0.1252E+02  0.2499E+03
     22.919  0.1262E+02  0.2501E+03
     22.931  0.1293E+02  0.2502E+03
     22.943  0.1256E+02  0.2504E+03
     22.955  0.1168E+02  0.2505E+03
     22.967  0.1064E+02  0.2507E+03
     22.979  0.1055E+02  0.2508E+03
     22.991  0.1276E+02  0.2509E+03
     23.003  0.1548E+02  0.2511E+03
     23.015  0.1695E+02  0.2513E+03
     23.028  0.1438E+02  0.2515E+03
     23.040  0.1211E+02  0.2517E+03
     23.052  0.1431E+02  0.2518E+03
     23.064  0.1590E+02  0.2520E+03
     23.076  0.1312E+02  0.2522E+03
     23.088  0.1164E+02  0.2523E+03
     23.100  0.1276E+02  0.2525E+03
     23.112  0.1156E+02  0.2526E+03
     23.124  0.1084E+02  0.2527E+03
     23.136  0.1215E+02  0.2529E+03
     23.148  0.1295E+02  0.2530E+03
     23.160  0.1383E+02  0.2532E+03
     23.172  0.1219E+02  0.2534E+03
     23.184  0.1279E+02  0.2535E+03
     23.196  0.1304E+02  0.2537E+03
     23.208  0.1097E+02  0.2538E+03
     23.220  0.9359E+01  0.2539E+03
     23.232  0.8662E+01  0.2540E+03
     23.244  0.8533E+01  0.2541E+03
     23.256  0.8427E+01  0.2542E+03
     23.268  0.7796E+01  0.2543E+03
     23.280  0.7505E+01  0.2544E+03
     23.292  0.7000E+01  0.2545E+03
     23.304  0.6113E+01  0.2546E+03
     23.316  0.7990E+01  0.2547E+03
     23.328  0.9358E+01  0.2548E+03
     23.340  0.8424E+01  0.2549E+03
     23.352  0.8390E+01  0.2550E+03
     23.364  0.8070E+01  0.2551E+03
     23.376  0.6486E+01  0.2551E+03
     23.388  0.5175E+01  0.2552E+03
     23.401  0.4625E+01  0.2553E+03
     23.413  0.4081E+01  0.2553E+03
     23.425  0.3853E+01  0.2554E+03
     23.437  0.3369E+01  0.2554E+03
     23.449  0.3133E+01  0.2554E+03
     23.461  0.2644E+01  0.2555E+03
     23.473  0.1542E+01  0.2555E+03
     23.485  0.1076E+01  0.2555E+03
     23.497  0.7595E+00  0.2555E+03
     23.509  0.9734E+00  0.2555E+03
     23.521  0.2097E+01  0.2555E+03
     23.533  0.2876E+01  0.2556E+03
     23.545  0.3298E+01  0.2556E+03
     23.557  0.2397E+01  0.2557E+03
     23.569  0.3415E+01  0.2557E+03
     23.581  0.2911E+01  0.2557E+03
     23.593  0.2307E+01  0.2558E+03
     23.605  0.1941E+01  0.2558E+03
     23.617  0.1572E+01  0.2558E+03
     23.629  0.1822E+01  0.2558E+03
     23.641  0.1086E+01  0.2558E+03
     23.653  0.7005E+00  0.2558E+03
     23.665  0.8009E+00  0.2559E+03
     23.677  0.1014E+01  0.2559E+03
     23.689  0.5802E+00  0.2559E+03
     23.701  0.4008E+00  0.2559E+03
     23.713  0.6226E+00  0.2559E+03
     23.725  0.5741E+00  0.2559E+03
     23.737  0.5810E+00  0.2559E+03
     23.749  0.4944E+00  0.2559E+03
     23.761  0.6573E+00  0.2559E+03
     23.773  0.8637E+00  0.2559E+03
     23.786  0.7118E+00  0.2559E+03
     23.798  0.6480E+00  0.2559E+03
     23.810  0.4219E+00  0.2559E+03
     23.822  0.2956E+00  0.2559E+03
     23.834  0.2299E+00  0.2559E+03
     23.846  0.2618E+00  0.2560E+03
     23.858  0.5310E+00  0.2560E+03
     23.870  0.9208E+00  0.2560E+03
     23.882  0.9169E+00  0.2560E+03
     23.894  0.1939E+00  0.2560E+03
     23.906  0.1141E-01  0.2560E+03
     23.918  0.1423E+00  0.2560E+03
     23.930  0.3071E+00  0.2560E+03
     23.942  0.3118E+00  0.2560E+03
     23.954  0.3300E+00  0.2560E+03
     23.966  0.2738E+00  0.2560E+03
     23.978  0.4397E-01  0.2560E+03
     23.990  0.6034E-03  0.2560E+03
     24.002  0.5626E-06  0.2560E+03
     24.014  0.3230E-10  0.2560E+03
     24.026  0.1048E-15  0.2560E+03
     24.038  0.0000E+00  0.2560E+03
     24.050  0.0000E+00  0.2560E+03
     24.062  0.0000E+00  0.2560E+03
     24.074  0.0000E+00  0.2560E+03
     24.086  0.0000E+00  0.2560E+03
     24.098  0.0000E+00  0.2560E+03
     24.110  0.0000E+00  0.2560E+03
     24.122  0.0000E+00  0.2560E+03
     24.134  0.0000E+00  0.2560E+03
     24.146  0.0000E+00  0.2560E+03
     24.158  0.0000E+00  0.2560E+03
     24.171  0.0000E+00  0.2560E+03
     24.183  0.0000E+00  0.2560E+03
     24.195  0.0000E+00  0.2560E+03
     24.207  0.0000E+00  0.2560E+03
     24.219  0.0000E+00  0.2560E+03
     24.231  0.0000E+00  0.2560E+03
     24.243  0.0000E+00  0.2560E+03
     24.255  0.0000E+00  0.2560E+03
     24.267  0.0000E+00  0.2560E+03
     24.279  0.0000E+00  0.2560E+03
     24.291  0.0000E+00  0.2560E+03
     24.303  0.0000E+00  0.2560E+03
     24.315  0.0000E+00  0.2560E+03
     24.327  0.0000E+00  0.2560E+03
     24.339  0.0000E+00  0.2560E+03
     24.351  0.0000E+00  0.2560E+03
     24.363  0.0000E+00  0.2560E+03
     24.375  0.0000E+00  0.2560E+03
     24.387  0.0000E+00  0.2560E+03
     24.399  0.0000E+00  0.2560E+03
     24.411  0.0000E+00  0.2560E+03
     24.423  0.0000E+00  0.2560E+03
     24.435  0.0000E+00  0.2560E+03
     24.447  0.0000E+00  0.2560E+03
     24.459  0.0000E+00  0.2560E+03
     24.471  0.0000E+00  0.2560E+03
     24.483  0.0000E+00  0.2560E+03
     24.495  0.0000E+00  0.2560E+03
     24.507  0.0000E+00  0.2560E+03
     24.519  0.0000E+00  0.2560E+03
     24.531  0.0000E+00  0.2560E+03
     24.543  0.0000E+00  0.2560E+03
     24.556  0.0000E+00  0.2560E+03
     24.568  0.0000E+00  0.2560E+03
     24.580  0.0000E+00  0.2560E+03
     24.592  0.0000E+00  0.2560E+03
     24.604  0.0000E+00  0.2560E+03
     24.616  0.0000E+00  0.2560E+03
     24.628  0.0000E+00  0.2560E+03
     24.640  0.0000E+00  0.2560E+03
     24.652  0.0000E+00  0.2560E+03
     24.664  0.0000E+00  0.2560E+03
     24.676  0.0000E+00  0.2560E+03
     24.688  0.0000E+00  0.2560E+03
     24.700  0.0000E+00  0.2560E+03
     24.712  0.0000E+00  0.2560E+03
     24.724  0.0000E+00  0.2560E+03
     24.736  0.0000E+00  0.2560E+03
     24.748  0.0000E+00  0.2560E+03
     24.760  0.0000E+00  0.2560E+03
     24.772  0.0000E+00  0.2560E+03
     24.784  0.0000E+00  0.2560E+03
     24.796  0.0000E+00  0.2560E+03
     24.808  0.0000E+00  0.2560E+03
     24.820  0.0000E+00  0.2560E+03
     24.832  0.0000E+00  0.2560E+03
     24.844  0.0000E+00  0.2560E+03
     24.856  0.0000E+00  0.2560E+03
     24.868  0.0000E+00  0.2560E+03
     24.880  0.0000E+00  0.2560E+03
     24.892  0.0000E+00  0.2560E+03
     24.904  0.0000E+00  0.2560E+03
     24.916  0.0000E+00  0.2560E+03
     24.929  0.0000E+00  0.2560E+03
     24.941  0.0000E+00  0.2560E+03
     24.953  0.0000E+00  0.2560E+03
     24.965  0.0000E+00  0.2560E+03
     24.977  0.0000E+00  0.2560E+03
     24.989  0.0000E+00  0.2560E+03
     25.001  0.0000E+00  0.2560E+03
     25.013  0.0000E+00  0.2560E+03
     25.025  0.0000E+00  0.2560E+03
     25.037  0.0000E+00  0.2560E+03
     25.049  0.0000E+00  0.2560E+03
     25.061  0.0000E+00  0.2560E+03
     25.073  0.0000E+00  0.2560E+03
     25.085  0.0000E+00  0.2560E+03
     25.097  0.0000E+00  0.2560E+03
     25.109  0.0000E+00  0.2560E+03
     25.121  0.0000E+00  0.2560E+03
     25.133  0.0000E+00  0.2560E+03
     25.145  0.0000E+00  0.2560E+03
     25.157  0.0000E+00  0.2560E+03
     25.169  0.0000E+00  0.2560E+03
     25.181  0.0000E+00  0.2560E+03
     25.193  0.0000E+00  0.2560E+03
     25.205  0.0000E+00  0.2560E+03
     25.217  0.0000E+00  0.2560E+03
     25.229  0.0000E+00  0.2560E+03
     25.241  0.0000E+00  0.2560E+03
     25.253  0.0000E+00  0.2560E+03
     25.265  0.0000E+00  0.2560E+03
     25.277  0.0000E+00  0.2560E+03
     25.289  0.0000E+00  0.2560E+03
     25.301  0.0000E+00  0.2560E+03
     25.314  0.0000E+00  0.2560E+03
     25.326  0.0000E+00  0.2560E+03
     25.338  0.0000E+00  0.2560E+03
     25.350  0.0000E+00  0.2560E+03
     25.362  0.0000E+00  0.2560E+03
     25.374  0.0000E+00  0.2560E+03
     25.386  0.0000E+00  0.2560E+03
     25.398  0.0000E+00  0.2560E+03
     25.410  0.0000E+00  0.2560E+03
     25.422  0.0000E+00  0.2560E+03
     25.434  0.0000E+00  0.2560E+03
     25.446  0.0000E+00  0.2560E+03
     25.458  0.0000E+00  0.2560E+03
     25.470  0.0000E+00  0.2560E+03
     25.482  0.0000E+00  0.2560E+03
     25.494  0.0000E+00  0.2560E+03
     25.506  0.0000E+00  0.2560E+03
     25.518  0.0000E+00  0.2560E+03
     25.530  0.0000E+00  0.2560E+03
     25.542  0.0000E+00  0.2560E+03
     25.554  0.0000E+00  0.2560E+03
     25.566  0.0000E+00  0.2560E+03
     25.578  0.0000E+00  0.2560E+03
     25.590  0.0000E+00  0.2560E+03
     25.602  0.0000E+00  0.2560E+03
     25.614  0.0000E+00  0.2560E+03
     25.626  0.0000E+00  0.2560E+03
     25.638  0.0000E+00  0.2560E+03
     25.650  0.0000E+00  0.2560E+03
     25.662  0.0000E+00  0.2560E+03
     25.674  0.0000E+00  0.2560E+03
     25.686  0.0000E+00  0.2560E+03
     25.699  0.0000E+00  0.2560E+03
     25.711  0.0000E+00  0.2560E+03
     25.723  0.0000E+00  0.2560E+03
     25.735  0.0000E+00  0.2560E+03
     25.747  0.0000E+00  0.2560E+03
     25.759  0.0000E+00  0.2560E+03
     25.771  0.0000E+00  0.2560E+03
     25.783  0.0000E+00  0.2560E+03
     25.795  0.0000E+00  0.2560E+03
     25.807  0.0000E+00  0.2560E+03
     25.819  0.0000E+00  0.2560E+03
     25.831  0.0000E+00  0.2560E+03
     25.843  0.0000E+00  0.2560E+03
     25.855  0.0000E+00  0.2560E+03
     25.867  0.0000E+00  0.2560E+03
     25.879  0.0000E+00  0.2560E+03
     25.891  0.0000E+00  0.2560E+03
     25.903  0.0000E+00  0.2560E+03
     25.915  0.0000E+00  0.2560E+03
     25.927  0.0000E+00  0.2560E+03
     25.939  0.0000E+00  0.2560E+03
     25.951  0.0000E+00  0.2560E+03
     25.963  0.0000E+00  0.2560E+03
     25.975  0.0000E+00  0.2560E+03
     25.987  0.0000E+00  0.2560E+03
     25.999  0.0000E+00  0.2560E+03
     26.011  0.0000E+00  0.2560E+03
     26.023  0.0000E+00  0.2560E+03
     26.035  0.0000E+00  0.2560E+03
     26.047  0.0000E+00  0.2560E+03
     26.059  0.0000E+00  0.2560E+03
     26.072  0.0000E+00  0.2560E+03
     26.084  0.0000E+00  0.2560E+03
     26.096  0.0000E+00  0.2560E+03
     26.108  0.0000E+00  0.2560E+03
     26.120  0.0000E+00  0.2560E+03
     26.132  0.0000E+00  0.2560E+03
     26.144  0.0000E+00  0.2560E+03
